EXPLAIN
TAG	CORPOT
TITLE	LABEL	Open Circuit Potential	Test &Identifier
DATE	LABEL	2019-10-17	Date
TIME	LABEL	7:52:48	Time
NOTES	NOTES	1	&Notes...
	
PSTAT	PSTAT	REF3000-13111	Potentiostat
TIMEOUT	QUANT	9.00000E+004	Total &Time (s)
SAMPLETIME	QUANT	1.00000E+000	Sa&mple Period (s)
STABILITY	QUANT	0.00000E+000	Sta&bility (mV/s)
PSTATMODEL	IQUANT	5	Pstat Model
PSTATSECTION	LABEL	REF3000-13111	Pstat Section
PSTATSERIALNO	LABEL	13111	Pstat Serial Number
CTRLMODE	IQUANT	1	Control Mode
IESTAB	IQUANT	2	I/E Stability
CASPEED	IQUANT	2	Control Amp Speed
CONVENTION	IQUANT	1	Current Convention
ICHRANGE	IQUANT	2	Ich Range
ICHRANGEMODE	TOGGLE	T	Ich Auto Range
ICHOFFSETENABLE	TOGGLE	F	Ich Offset Enable
ICHOFFSET	QUANT	0	Ich Offset (V)
ICHFILTER	IQUANT	3	Ich Filter
VCHRANGE	IQUANT	3	Vch Range
VCHRANGEMODE	TOGGLE	T	Vch Auto Range
VCHOFFSETENABLE	TOGGLE	F	Vch Offset Enable
VCHOFFSET	QUANT	0	Vch Offset (V)
VCHFILTER	IQUANT	3	Vch Filter
ACHRANGE	IQUANT	2	Ach Range
ACHOFFSETENABLE	TOGGLE	F	Ach Offset Enable
ACHOFFSET	QUANT	0	Ach Offset (V)
ACHFILTER	IQUANT	3	Ach Filter
IERANGELOWERLIMIT	IQUANT	2	I/E Range Lower Limit
IERANGEMODE	TOGGLE	T	I/E AutoRange
IERANGE	IQUANT	11	I/E Range
POSFEEDENABLE	TOGGLE	F	Positive Feedback IR Comp
POSFEEDRESISTANCE	QUANT	0	Positive Feedback Resistance (ohm)
ACHSELECT	IQUANT	0	Ach Select
CABLEID	IQUANT	14	Cable ID
DCCALDATE	LABEL	2019-10-1	DC Calibration Date
ACCALDATE	LABEL	2019-10-1	AC Calibration Date
THERMOSELECT	IQUANT	1	Thermo Select
FRAMEWORKVERSION	QUANT	6.33	Framework Version
INSTRUMENTVERSION	LABEL	3.50	Instrument Version
COMPLIANCEVOLTAGE	IQUANT	0	Compliance Voltage
CURVE	TABLE	1868
	Pt	T	Vf	Vm	Ach	Over
	#	s	V vs. Ref.	V	V	bits
	0	1.00833	1.04244E+000	1.04244E+000	7.16439E-004	...........
	1	2.01667	1.04241E+000	1.04098E+000	7.17072E-004	...........
	2	3.025	1.04229E+000	1.04231E+000	7.20147E-004	...........
	3	4.03333	1.04209E+000	1.04168E+000	7.19881E-004	...........
	4	5.04167	1.04193E+000	1.04235E+000	7.16364E-004	...........
	5	6.05	1.04189E+000	1.04167E+000	7.14181E-004	...........
	6	7.05833	1.04192E+000	1.04216E+000	7.14181E-004	...........
	7	8.06667	1.04196E+000	1.04191E+000	7.12914E-004	...........
	8	9.075	1.04197E+000	1.04177E+000	7.17331E-004	...........
	9	10.0833	1.04197E+000	1.04258E+000	7.17589E-004	...........
	10	11.0917	1.04203E+000	1.04366E+000	7.24397E-004	...........
	11	12.1	1.04222E+000	1.04207E+000	7.20839E-004	...........
	12	13.1083	1.04251E+000	1.04346E+000	7.22264E-004	...........
	13	14.1167	1.04273E+000	1.04251E+000	7.11756E-004	...........
	14	15.125	1.04287E+000	1.04424E+000	7.09039E-004	...........
	15	16.1333	1.04300E+000	1.04299E+000	7.16447E-004	...........
	16	17.1417	1.04325E+000	1.04733E+000	7.14456E-004	...........
	17	18.15	1.04369E+000	1.04284E+000	7.17522E-004	...........
	18	19.1583	1.04417E+000	1.04289E+000	7.19272E-004	...........
	19	20.1667	1.04430E+000	1.04354E+000	7.20356E-004	...........
	20	21.175	1.04402E+000	1.04383E+000	7.19381E-004	...........
	21	22.1833	1.04369E+000	1.04407E+000	7.08906E-004	...........
	22	23.1917	1.04359E+000	1.04357E+000	7.12773E-004	...........
	23	24.2	1.04366E+000	1.04404E+000	7.08223E-004	...........
	24	25.2083	1.04373E+000	1.04213E+000	7.11173E-004	...........
	25	26.2167	1.04365E+000	1.04331E+000	7.14139E-004	...........
	26	27.225	1.04341E+000	1.04297E+000	7.17081E-004	...........
	27	28.2333	1.04318E+000	1.04337E+000	7.12898E-004	...........
	28	29.2417	1.04308E+000	1.04360E+000	7.12931E-004	...........
	29	30.25	1.04313E+000	1.04291E+000	7.05764E-004	...........
	30	31.2583	1.04322E+000	1.04315E+000	7.11839E-004	...........
	31	32.2667	1.04322E+000	1.04203E+000	7.09864E-004	...........
	32	33.275	1.04310E+000	1.04360E+000	7.09864E-004	...........
	33	34.2833	1.04295E+000	1.04270E+000	7.09498E-004	...........
	34	35.2917	1.04287E+000	1.04217E+000	7.12548E-004	...........
	35	36.3	1.04282E+000	1.04306E+000	7.14306E-004	...........
	36	37.3083	1.04276E+000	1.04327E+000	7.17631E-004	...........
	37	38.3167	1.04275E+000	1.04168E+000	7.17256E-004	...........
	38	39.325	1.04275E+000	1.04324E+000	7.14181E-004	...........
	39	40.3333	1.04270E+000	1.04210E+000	7.14431E-004	...........
	40	41.3417	1.04260E+000	1.04181E+000	7.10981E-004	...........
	41	42.35	1.04249E+000	1.04299E+000	7.12373E-004	...........
	42	43.3583	1.04240E+000	1.04312E+000	7.19856E-004	...........
	43	44.3667	1.04245E+000	1.04268E+000	7.12489E-004	...........
	44	45.375	1.04262E+000	1.04318E+000	7.13664E-004	...........
	45	46.3833	1.04280E+000	1.04301E+000	7.20497E-004	...........
	46	47.3917	1.04295E+000	1.04423E+000	7.15639E-004	...........
	47	48.4	1.04316E+000	1.04512E+000	7.15756E-004	...........
	48	49.4083	1.04348E+000	1.04191E+000	7.10089E-004	...........
	49	50.4167	1.04373E+000	1.04344E+000	7.16731E-004	...........
	50	51.425	1.04365E+000	1.04183E+000	7.06431E-004	...........
	51	52.4333	1.04332E+000	1.04363E+000	7.16697E-004	...........
	52	53.4417	1.04300E+000	1.04331E+000	7.15306E-004	...........
	53	54.45	1.04293E+000	1.04399E+000	7.15189E-004	...........
	54	55.4583	1.04308E+000	1.04248E+000	7.12331E-004	...........
	55	56.4667	1.04324E+000	1.04267E+000	7.15881E-004	...........
	56	57.475	1.04322E+000	1.04329E+000	7.23381E-004	...........
	57	58.4833	1.04309E+000	1.04316E+000	7.15997E-004	...........
	58	59.4917	1.04302E+000	1.04328E+000	7.14773E-004	...........
	59	60.5	1.04307E+000	1.04369E+000	7.17181E-004	...........
	60	61.5083	1.04319E+000	1.04349E+000	7.15064E-004	...........
	61	62.5167	1.04335E+000	1.04437E+000	7.12406E-004	...........
	62	63.525	1.04352E+000	1.04256E+000	7.22747E-004	...........
	63	64.5333	1.04358E+000	1.04239E+000	7.16647E-004	...........
	64	65.5417	1.04341E+000	1.04208E+000	7.17889E-004	...........
	65	66.55	1.04303E+000	1.04206E+000	7.17131E-004	...........
	66	67.5583	1.04262E+000	1.04278E+000	7.11106E-004	...........
	67	68.5667	1.04239E+000	1.04330E+000	7.16831E-004	...........
	68	69.575	1.04242E+000	1.04258E+000	7.21631E-004	...........
	69	70.5833	1.04261E+000	1.04330E+000	7.16581E-004	...........
	70	71.5917	1.04280E+000	1.04236E+000	7.15997E-004	...........
	71	72.6	1.04288E+000	1.04285E+000	7.21172E-004	...........
	72	73.6083	1.04287E+000	1.04324E+000	7.20481E-004	...........
	73	74.6167	1.04287E+000	1.04377E+000	7.16797E-004	...........
	74	75.625	1.04297E+000	1.04268E+000	7.24014E-004	...........
	75	76.6333	1.04311E+000	1.04325E+000	7.14956E-004	...........
	76	77.6417	1.04318E+000	1.04310E+000	7.13406E-004	...........
	77	78.65	1.04315E+000	1.04204E+000	7.17181E-004	...........
	78	79.6583	1.04300E+000	1.04137E+000	7.18664E-004	...........
	79	80.6667	1.04274E+000	1.04440E+000	7.24214E-004	...........
	80	81.675	1.04255E+000	1.04262E+000	7.22281E-004	...........
	81	82.6833	1.04263E+000	1.04343E+000	7.21014E-004	...........
	82	83.6917	1.04288E+000	1.04345E+000	7.22822E-004	...........
	83	84.7	1.04311E+000	1.04321E+000	7.17506E-004	...........
	84	85.7083	1.04325E+000	1.04291E+000	7.16564E-004	...........
	85	86.7167	1.04327E+000	1.04277E+000	7.15172E-004	...........
	86	87.725	1.04320E+000	1.04463E+000	7.14647E-004	...........
	87	88.7333	1.04325E+000	1.04538E+000	7.16706E-004	...........
	88	89.7417	1.04356E+000	1.04281E+000	7.19506E-004	...........
	89	90.75	1.04392E+000	1.04371E+000	7.10906E-004	...........
	90	91.7583	1.04403E+000	1.04328E+000	7.14372E-004	...........
	91	92.7667	1.04386E+000	1.04379E+000	7.15223E-004	...........
	92	93.775	1.04366E+000	1.04348E+000	7.11698E-004	...........
	93	94.7833	1.04358E+000	1.04466E+000	7.11339E-004	...........
	94	95.792	1.04363E+000	1.04271E+000	7.08714E-004	...........
	95	96.8	1.04371E+000	1.04381E+000	7.08889E-004	...........
	96	97.808	1.04368E+000	1.04266E+000	7.04898E-004	...........
	97	98.817	1.04355E+000	1.04424E+000	7.11506E-004	...........
	98	99.825	1.04344E+000	1.04334E+000	7.10089E-004	...........
	99	100.833	1.04346E+000	1.04459E+000	7.06789E-004	...........
	100	101.842	1.04360E+000	1.04327E+000	7.09681E-004	...........
	101	102.85	1.04374E+000	1.04361E+000	7.08823E-004	...........
	102	103.858	1.04381E+000	1.04497E+000	7.06289E-004	...........
	103	104.867	1.04388E+000	1.04497E+000	7.12206E-004	...........
	104	105.875	1.04412E+000	1.04525E+000	7.07764E-004	...........
	105	106.883	1.04447E+000	1.04444E+000	7.05773E-004	...........
	106	107.892	1.04474E+000	1.04449E+000	7.10131E-004	...........
	107	108.9	1.04483E+000	1.04514E+000	7.14081E-004	...........
	108	109.908	1.04484E+000	1.04686E+000	7.04964E-004	...........
	109	110.917	1.04497E+000	1.04367E+000	7.09589E-004	...........
	110	111.925	1.04514E+000	1.04407E+000	7.06156E-004	...........
	111	112.933	1.04506E+000	1.04374E+000	7.09756E-004	...........
	112	113.942	1.04470E+000	1.04480E+000	7.14256E-004	...........
	113	114.95	1.04432E+000	1.04216E+000	7.15564E-004	...........
	114	115.958	1.04401E+000	1.04341E+000	7.12114E-004	...........
	115	116.967	1.04372E+000	1.04465E+000	7.11814E-004	...........
	116	117.975	1.04356E+000	1.04429E+000	7.11473E-004	...........
	117	118.983	1.04369E+000	1.04478E+000	7.14031E-004	...........
	118	119.992	1.04399E+000	1.04391E+000	7.11531E-004	...........
	119	121	1.04427E+000	1.04569E+000	7.13422E-004	...........
	120	122.008	1.04447E+000	1.04396E+000	7.12423E-004	...........
	121	123.017	1.04459E+000	1.04436E+000	7.15339E-004	...........
	122	124.025	1.04459E+000	1.04365E+000	7.15206E-004	...........
	123	125.033	1.04444E+000	1.04419E+000	7.11914E-004	...........
	124	126.042	1.04424E+000	1.04438E+000	7.19397E-004	...........
	125	127.05	1.04413E+000	1.04438E+000	7.15939E-004	...........
	126	128.058	1.04414E+000	1.04359E+000	7.18947E-004	...........
	127	129.067	1.04414E+000	1.04359E+000	7.13839E-004	...........
	128	130.075	1.04406E+000	1.04420E+000	7.12198E-004	...........
	129	131.083	1.04394E+000	1.04373E+000	7.16772E-004	...........
	130	132.092	1.04388E+000	1.04403E+000	7.09981E-004	...........
	131	133.1	1.04390E+000	1.04518E+000	7.14123E-004	...........
	132	134.108	1.04400E+000	1.04273E+000	7.08923E-004	...........
	133	135.117	1.04405E+000	1.04207E+000	7.13081E-004	...........
	134	136.125	1.04383E+000	1.04364E+000	7.18089E-004	...........
	135	137.133	1.04343E+000	1.04300E+000	7.12998E-004	...........
	136	138.142	1.04314E+000	1.04370E+000	7.05906E-004	...........
	137	139.15	1.04308E+000	1.04238E+000	7.13573E-004	...........
	138	140.158	1.04310E+000	1.04242E+000	7.11789E-004	...........
	139	141.167	1.04302E+000	1.04277E+000	7.16689E-004	...........
	140	142.175	1.04285E+000	1.04304E+000	7.11148E-004	...........
	141	143.183	1.04272E+000	1.04173E+000	7.13739E-004	...........
	142	144.192	1.04266E+000	1.04373E+000	7.16606E-004	...........
	143	145.2	1.04263E+000	1.04140E+000	7.09239E-004	...........
	144	146.208	1.04259E+000	1.04261E+000	7.10023E-004	...........
	145	147.217	1.04250E+000	1.04192E+000	7.10923E-004	...........
	146	148.225	1.04238E+000	1.04354E+000	7.15164E-004	...........
	147	149.233	1.04238E+000	1.04238E+000	7.09698E-004	...........
	148	150.242	1.04249E+000	1.04231E+000	7.07523E-004	...........
	149	151.25	1.04259E+000	1.04252E+000	7.12139E-004	...........
	150	152.258	1.04260E+000	1.04346E+000	7.13239E-004	...........
	151	153.267	1.04263E+000	1.04264E+000	7.11598E-004	...........
	152	154.275	1.04271E+000	1.04221E+000	7.09773E-004	...........
	153	155.283	1.04274E+000	1.04186E+000	7.12689E-004	...........
	154	156.292	1.04263E+000	1.04325E+000	7.10114E-004	...........
	155	157.3	1.04247E+000	1.04087E+000	7.08339E-004	...........
	156	158.308	1.04233E+000	1.04299E+000	7.13747E-004	...........
	157	159.317	1.04222E+000	1.04200E+000	7.12198E-004	...........
	158	160.325	1.04218E+000	1.04268E+000	7.10698E-004	...........
	159	161.333	1.04222E+000	1.04145E+000	7.18197E-004	...........
	160	162.342	1.04226E+000	1.04360E+000	7.21172E-004	...........
	161	163.35	1.04231E+000	1.04231E+000	7.10881E-004	...........
	162	164.358	1.04243E+000	1.04282E+000	7.12923E-004	...........
	163	165.367	1.04256E+000	1.04208E+000	7.12239E-004	...........
	164	166.375	1.04260E+000	1.04212E+000	7.09198E-004	...........
	165	167.383	1.04251E+000	1.04255E+000	7.17731E-004	...........
	166	168.392	1.04243E+000	1.04418E+000	7.17164E-004	...........
	167	169.4	1.04254E+000	1.04373E+000	7.13356E-004	...........
	168	170.408	1.04290E+000	1.04349E+000	7.11173E-004	...........
	169	171.417	1.04325E+000	1.04054E+000	7.10998E-004	...........
	170	172.425	1.04322E+000	1.04222E+000	7.10806E-004	...........
	171	173.433	1.04281E+000	1.04323E+000	7.08714E-004	...........
	172	174.442	1.04241E+000	1.04215E+000	7.13239E-004	...........
	173	175.45	1.04229E+000	1.04235E+000	7.13498E-004	...........
	174	176.458	1.04233E+000	1.04139E+000	7.19122E-004	...........
	175	177.467	1.04228E+000	1.04156E+000	7.16606E-004	...........
	176	178.475	1.04209E+000	1.04223E+000	7.13898E-004	...........
	177	179.483	1.04190E+000	1.04166E+000	7.17456E-004	...........
	178	180.492	1.04181E+000	1.04186E+000	7.05948E-004	...........
	179	181.5	1.04183E+000	1.04275E+000	7.14531E-004	...........
	180	182.508	1.04194E+000	1.04314E+000	7.05281E-004	...........
	181	183.517	1.04218E+000	1.04296E+000	7.09498E-004	...........
	182	184.525	1.04250E+000	1.04239E+000	7.17756E-004	...........
	183	185.533	1.04271E+000	1.04195E+000	7.20139E-004	...........
	184	186.542	1.04269E+000	1.04176E+000	7.14031E-004	...........
	185	187.55	1.04247E+000	1.04256E+000	7.14006E-004	...........
	186	188.558	1.04227E+000	1.04300E+000	7.18022E-004	...........
	187	189.567	1.04225E+000	1.04280E+000	7.15864E-004	...........
	188	190.575	1.04241E+000	1.04216E+000	7.12239E-004	...........
	189	191.583	1.04258E+000	1.04329E+000	7.15139E-004	...........
	190	192.592	1.04268E+000	1.04305E+000	7.18864E-004	...........
	191	193.6	1.04274E+000	1.04102E+000	7.14947E-004	...........
	192	194.608	1.04264E+000	1.04033E+000	7.20314E-004	...........
	193	195.617	1.04226E+000	1.04235E+000	7.16214E-004	...........
	194	196.625	1.04174E+000	1.03947E+000	7.15181E-004	...........
	195	197.633	1.04138E+000	1.04501E+000	7.11956E-004	...........
	196	198.642	1.04132E+000	1.03836E+000	7.08948E-004	...........
	197	199.65	1.04134E+000	1.03737E+000	7.03406E-004	...........
	198	200.658	1.04081E+000	1.03393E+000	7.12798E-004	...........
	199	201.667	1.03934E+000	1.03185E+000	7.13006E-004	...........
	200	202.675	1.03714E+000	1.02936E+000	7.14797E-004	...........
	201	203.683	1.03469E+000	1.03063E+000	7.19306E-004	...........
	202	204.692	1.03259E+000	1.03238E+000	7.18831E-004	...........
	203	205.7	1.03139E+000	1.03366E+000	7.18472E-004	...........
	204	206.708	1.03129E+000	1.03322E+000	7.21314E-004	...........
	205	207.717	1.03195E+000	1.03530E+000	7.15097E-004	...........
	206	208.725	1.03287E+000	1.03532E+000	7.14306E-004	...........
	207	209.733	1.03376E+000	1.03430E+000	7.12431E-004	...........
	208	210.742	1.03443E+000	1.03501E+000	7.12464E-004	...........
	209	211.75	1.03478E+000	1.03581E+000	7.18522E-004	...........
	210	212.758	1.03499E+000	1.03686E+000	7.20439E-004	...........
	211	213.767	1.03529E+000	1.03548E+000	7.23747E-004	...........
	212	214.775	1.03566E+000	1.03607E+000	7.14264E-004	...........
	213	215.783	1.03592E+000	1.03622E+000	7.10839E-004	...........
	214	216.792	1.03601E+000	1.03536E+000	7.15972E-004	...........
	215	217.8	1.03599E+000	1.03594E+000	7.20964E-004	...........
	216	218.808	1.03591E+000	1.03563E+000	7.19422E-004	...........
	217	219.817	1.03587E+000	1.03834E+000	7.15606E-004	...........
	218	220.825	1.03620E+000	1.04578E+000	7.23356E-004	...........
	219	221.833	1.03728E+000	1.03476E+000	7.17547E-004	...........
	220	222.842	1.03847E+000	1.03092E+000	7.22514E-004	...........
	221	223.85	1.03831E+000	1.03080E+000	7.16114E-004	...........
	222	224.858	1.03636E+000	1.02985E+000	7.13639E-004	...........
	223	225.867	1.03373E+000	1.02997E+000	7.12806E-004	...........
	224	226.875	1.03196E+000	1.04654E+000	7.18056E-004	...........
	225	227.883	1.03241E+000	1.04585E+000	7.19639E-004	...........
	226	228.892	1.03553E+000	1.04619E+000	7.21056E-004	...........
	227	229.9	1.03990E+000	1.04610E+000	7.24506E-004	...........
	228	230.908	1.04349E+000	1.04537E+000	7.25997E-004	...........
	229	231.917	1.04538E+000	1.04467E+000	7.23031E-004	...........
	230	232.925	1.04586E+000	1.04452E+000	7.20606E-004	...........
	231	233.933	1.04559E+000	1.04455E+000	7.12039E-004	...........
	232	234.942	1.04517E+000	1.04697E+000	7.11081E-004	...........
	233	235.95	1.04503E+000	1.04544E+000	7.16881E-004	...........
	234	236.958	1.04522E+000	1.04509E+000	7.19289E-004	...........
	235	237.967	1.04546E+000	1.04466E+000	7.19239E-004	...........
	236	238.975	1.04546E+000	1.04538E+000	7.14664E-004	...........
	237	239.983	1.04530E+000	1.04510E+000	7.20197E-004	...........
	238	240.992	1.04517E+000	1.04551E+000	7.18664E-004	...........
	239	242	1.04514E+000	1.04470E+000	7.14214E-004	...........
	240	243.008	1.04517E+000	1.04558E+000	7.16498E-004	...........
	241	244.017	1.04519E+000	1.04570E+000	7.10398E-004	...........
	242	245.025	1.04525E+000	1.04521E+000	7.15714E-004	...........
	243	246.033	1.04533E+000	1.04478E+000	7.12881E-004	...........
	244	247.042	1.04535E+000	1.04555E+000	7.19756E-004	...........
	245	248.05	1.04529E+000	1.04566E+000	7.18781E-004	...........
	246	249.058	1.04529E+000	1.04578E+000	7.20497E-004	...........
	247	250.067	1.04541E+000	1.04638E+000	7.21997E-004	...........
	248	251.075	1.04563E+000	1.04680E+000	7.15989E-004	...........
	249	252.083	1.04592E+000	1.04624E+000	7.20356E-004	...........
	250	253.092	1.04619E+000	1.04568E+000	7.15414E-004	...........
	251	254.1	1.04630E+000	1.04632E+000	7.10681E-004	...........
	252	255.108	1.04624E+000	1.04521E+000	7.15572E-004	...........
	253	256.117	1.04606E+000	1.04488E+000	7.19472E-004	...........
	254	257.125	1.04579E+000	1.04539E+000	7.19914E-004	...........
	255	258.133	1.04553E+000	1.04646E+000	7.21331E-004	...........
	256	259.142	1.04543E+000	1.04532E+000	7.19256E-004	...........
	257	260.15	1.04551E+000	1.04505E+000	7.18464E-004	...........
	258	261.158	1.04556E+000	1.04519E+000	7.21456E-004	...........
	259	262.167	1.04549E+000	1.04562E+000	7.18172E-004	...........
	260	263.175	1.04539E+000	1.04595E+000	7.25064E-004	...........
	261	264.183	1.04541E+000	1.04587E+000	7.15731E-004	...........
	262	265.192	1.04554E+000	1.04516E+000	7.24006E-004	...........
	263	266.2	1.04564E+000	1.04538E+000	7.19781E-004	...........
	264	267.208	1.04561E+000	1.04563E+000	7.17414E-004	...........
	265	268.217	1.04552E+000	1.04502E+000	7.17831E-004	...........
	266	269.225	1.04543E+000	1.04498E+000	7.14464E-004	...........
	267	270.233	1.04534E+000	1.04571E+000	7.07764E-004	...........
	268	271.242	1.04524E+000	1.04378E+000	7.18681E-004	...........
	269	272.25	1.04514E+000	1.04627E+000	7.16822E-004	...........
	270	273.258	1.04504E+000	1.04329E+000	7.18239E-004	...........
	271	274.267	1.04492E+000	1.04469E+000	7.18847E-004	...........
	272	275.275	1.04474E+000	1.04448E+000	7.09756E-004	...........
	273	276.283	1.04456E+000	1.04445E+000	7.12773E-004	...........
	274	277.292	1.04447E+000	1.04521E+000	7.12006E-004	...........
	275	278.3	1.04453E+000	1.04528E+000	7.06898E-004	...........
	276	279.308	1.04471E+000	1.04538E+000	7.08023E-004	...........
	277	280.317	1.04497E+000	1.04603E+000	7.07706E-004	...........
	278	281.325	1.04523E+000	1.04548E+000	7.11898E-004	...........
	279	282.333	1.04546E+000	1.04576E+000	7.04306E-004	...........
	280	283.342	1.04562E+000	1.04590E+000	7.12948E-004	...........
	281	284.35	1.04569E+000	1.04497E+000	7.10639E-004	...........
	282	285.358	1.04564E+000	1.04405E+000	7.10239E-004	...........
	283	286.367	1.04540E+000	1.04405E+000	7.06481E-004	...........
	284	287.375	1.04502E+000	1.04583E+000	6.98398E-004	...........
	285	288.383	1.04476E+000	1.04619E+000	7.07731E-004	...........
	286	289.392	1.04486E+000	1.04543E+000	7.11214E-004	...........
	287	290.4	1.04521E+000	1.04562E+000	7.14497E-004	...........
	288	291.408	1.04552E+000	1.04577E+000	7.10023E-004	...........
	289	292.417	1.04566E+000	1.04554E+000	7.12856E-004	...........
	290	293.425	1.04569E+000	1.04583E+000	7.10448E-004	...........
	291	294.433	1.04568E+000	1.04523E+000	7.15281E-004	...........
	292	295.442	1.04563E+000	1.04493E+000	7.13131E-004	...........
	293	296.45	1.04552E+000	1.04539E+000	7.13339E-004	...........
	294	297.458	1.04539E+000	1.04616E+000	7.11023E-004	...........
	295	298.467	1.04536E+000	1.04514E+000	7.06156E-004	...........
	296	299.475	1.04543E+000	1.04537E+000	7.10398E-004	...........
	297	300.483	1.04551E+000	1.04679E+000	7.10281E-004	...........
	298	301.492	1.04558E+000	1.04406E+000	7.10223E-004	...........
	299	302.5	1.04557E+000	1.04383E+000	7.04148E-004	...........
	300	303.508	1.04532E+000	1.04475E+000	7.16306E-004	...........
	301	304.517	1.04489E+000	1.04392E+000	7.17222E-004	...........
	302	305.525	1.04451E+000	1.04376E+000	7.12981E-004	...........
	303	306.533	1.04425E+000	1.04384E+000	7.13323E-004	...........
	304	307.542	1.04405E+000	1.04360E+000	7.17714E-004	...........
	305	308.55	1.04391E+000	1.04440E+000	7.13347E-004	...........
	306	309.558	1.04388E+000	1.04495E+000	7.13139E-004	...........
	307	310.567	1.04402E+000	1.04487E+000	7.17122E-004	...........
	308	311.575	1.04428E+000	1.04410E+000	7.11598E-004	...........
	309	312.583	1.04450E+000	1.04421E+000	7.11448E-004	...........
	310	313.592	1.04453E+000	1.04403E+000	7.08273E-004	...........
	311	314.6	1.04440E+000	1.04356E+000	7.16289E-004	...........
	312	315.608	1.04420E+000	1.04435E+000	7.09056E-004	...........
	313	316.617	1.04407E+000	1.04497E+000	7.14147E-004	...........
	314	317.625	1.04411E+000	1.04503E+000	7.20172E-004	...........
	315	318.633	1.04432E+000	1.04402E+000	7.10223E-004	...........
	316	319.642	1.04453E+000	1.04450E+000	7.13714E-004	...........
	317	320.65	1.04459E+000	1.04446E+000	7.07531E-004	...........
	318	321.658	1.04454E+000	1.04490E+000	7.11889E-004	...........
	319	322.667	1.04452E+000	1.04492E+000	7.10498E-004	...........
	320	323.675	1.04460E+000	1.04489E+000	7.10706E-004	...........
	321	324.683	1.04472E+000	1.04456E+000	7.16922E-004	...........
	322	325.692	1.04476E+000	1.04334E+000	7.16872E-004	...........
	323	326.7	1.04463E+000	1.04367E+000	7.10456E-004	...........
	324	327.708	1.04433E+000	1.04459E+000	7.13664E-004	...........
	325	328.717	1.04409E+000	1.04462E+000	7.09881E-004	...........
	326	329.725	1.04405E+000	1.04377E+000	7.16522E-004	...........
	327	330.733	1.04415E+000	1.04451E+000	7.13356E-004	...........
	328	331.742	1.04424E+000	1.04460E+000	7.08798E-004	...........
	329	332.75	1.04434E+000	1.04652E+000	7.14064E-004	...........
	330	333.758	1.04459E+000	1.04511E+000	7.14039E-004	...........
	331	334.767	1.04497E+000	1.04484E+000	7.14222E-004	...........
	332	335.775	1.04518E+000	1.04187E+000	7.14581E-004	...........
	333	336.783	1.04491E+000	1.04293E+000	7.08423E-004	...........
	334	337.792	1.04424E+000	1.04412E+000	7.07081E-004	...........
	335	338.8	1.04361E+000	1.04380E+000	7.09089E-004	...........
	336	339.808	1.04340E+000	1.04446E+000	7.14972E-004	...........
	337	340.817	1.04356E+000	1.04391E+000	7.15831E-004	...........
	338	341.825	1.04383E+000	1.04423E+000	7.13581E-004	...........
	339	342.833	1.04404E+000	1.04484E+000	7.16606E-004	...........
	340	343.842	1.04422E+000	1.04582E+000	7.18756E-004	...........
	341	344.85	1.04449E+000	1.04516E+000	7.19506E-004	...........
	342	345.858	1.04485E+000	1.04556E+000	7.21306E-004	...........
	343	346.867	1.04517E+000	1.04556E+000	7.16814E-004	...........
	344	347.875	1.04537E+000	1.04561E+000	7.15947E-004	...........
	345	348.883	1.04547E+000	1.04488E+000	7.16456E-004	...........
	346	349.892	1.04547E+000	1.04507E+000	7.20572E-004	...........
	347	350.9	1.04534E+000	1.04385E+000	7.18231E-004	...........
	348	351.908	1.04508E+000	1.04400E+000	7.18947E-004	...........
	349	352.917	1.04470E+000	1.04292E+000	7.18506E-004	...........
	350	353.925	1.04425E+000	1.04329E+000	7.16997E-004	...........
	351	354.933	1.04384E+000	1.04527E+000	7.10214E-004	...........
	352	355.942	1.04373E+000	1.04637E+000	7.13164E-004	...........
	353	356.95	1.04407E+000	1.04487E+000	7.10739E-004	...........
	354	357.958	1.04467E+000	1.04479E+000	7.13789E-004	...........
	355	358.967	1.04510E+000	1.04538E+000	7.14164E-004	...........
	356	359.975	1.04521E+000	1.04455E+000	7.12739E-004	...........
	357	360.983	1.04512E+000	1.04404E+000	7.17431E-004	...........
	358	361.992	1.04493E+000	1.04521E+000	7.19222E-004	...........
	359	363	1.04476E+000	1.04498E+000	7.21647E-004	...........
	360	364.008	1.04472E+000	1.04563E+000	7.17339E-004	...........
	361	365.017	1.04485E+000	1.04457E+000	7.13747E-004	...........
	362	366.025	1.04499E+000	1.04434E+000	7.11014E-004	...........
	363	367.033	1.04497E+000	1.04413E+000	7.09523E-004	...........
	364	368.042	1.04479E+000	1.04506E+000	7.16589E-004	...........
	365	369.05	1.04457E+000	1.04277E+000	7.04464E-004	...........
	366	370.058	1.04435E+000	1.04319E+000	7.13698E-004	...........
	367	371.067	1.04402E+000	1.04291E+000	7.15731E-004	...........
	368	372.075	1.04364E+000	1.04448E+000	7.14206E-004	...........
	369	373.083	1.04347E+000	1.04579E+000	7.09606E-004	...........
	370	374.092	1.04369E+000	1.04387E+000	7.05114E-004	...........
	371	375.1	1.04412E+000	1.04380E+000	7.12814E-004	...........
	372	376.108	1.04438E+000	1.04435E+000	7.12089E-004	...........
	373	377.117	1.04436E+000	1.04367E+000	7.17781E-004	...........
	374	378.125	1.04422E+000	1.04525E+000	7.19047E-004	...........
	375	379.133	1.04418E+000	1.04392E+000	7.15472E-004	...........
	376	380.142	1.04423E+000	1.04363E+000	7.15389E-004	...........
	377	381.15	1.04423E+000	1.04344E+000	7.19256E-004	...........
	378	382.158	1.04409E+000	1.04426E+000	7.17981E-004	...........
	379	383.167	1.04394E+000	1.04526E+000	7.14714E-004	...........
	380	384.175	1.04396E+000	1.04285E+000	7.15839E-004	...........
	381	385.183	1.04406E+000	1.04362E+000	7.20156E-004	...........
	382	386.192	1.04405E+000	1.04510E+000	7.17431E-004	...........
	383	387.2	1.04397E+000	1.04333E+000	7.16122E-004	...........
	384	388.208	1.04395E+000	1.04262E+000	7.13131E-004	...........
	385	389.217	1.04383E+000	1.04255E+000	7.18414E-004	...........
	386	390.225	1.04350E+000	1.04284E+000	7.13914E-004	...........
	387	391.233	1.04314E+000	1.04441E+000	7.16439E-004	...........
	388	392.242	1.04305E+000	1.04455E+000	7.14606E-004	...........
	389	393.25	1.04331E+000	1.04382E+000	7.19906E-004	...........
	390	394.258	1.04373E+000	1.04492E+000	7.19497E-004	...........
	391	395.267	1.04409E+000	1.04409E+000	7.13422E-004	...........
	392	396.275	1.04428E+000	1.04399E+000	7.09514E-004	...........
	393	397.283	1.04430E+000	1.04248E+000	7.10748E-004	...........
	394	398.292	1.04406E+000	1.04218E+000	7.12572E-004	...........
	395	399.3	1.04359E+000	1.04263E+000	7.10823E-004	...........
	396	400.308	1.04306E+000	1.04254E+000	7.05689E-004	...........
	397	401.317	1.04270E+000	1.04322E+000	7.11764E-004	...........
	398	402.325	1.04259E+000	1.04250E+000	7.13839E-004	...........
	399	403.333	1.04265E+000	1.04276E+000	7.19264E-004	...........
	400	404.342	1.04275E+000	1.04410E+000	7.22247E-004	...........
	401	405.35	1.04288E+000	1.04303E+000	7.23364E-004	...........
	402	406.358	1.04309E+000	1.04366E+000	7.24331E-004	...........
	403	407.367	1.04326E+000	1.04240E+000	7.15089E-004	...........
	404	408.375	1.04329E+000	1.04280E+000	7.15273E-004	...........
	405	409.383	1.04317E+000	1.04325E+000	7.18481E-004	...........
	406	410.392	1.04300E+000	1.04228E+000	7.16297E-004	...........
	407	411.4	1.04285E+000	1.04095E+000	7.13622E-004	...........
	408	412.408	1.04265E+000	1.04447E+000	7.12206E-004	...........
	409	413.417	1.04249E+000	1.04262E+000	7.09823E-004	...........
	410	414.425	1.04257E+000	1.04308E+000	7.15389E-004	...........
	411	415.433	1.04280E+000	1.04300E+000	7.15764E-004	...........
	412	416.442	1.04296E+000	1.04300E+000	7.12656E-004	...........
	413	417.45	1.04303E+000	1.04351E+000	7.19256E-004	...........
	414	418.458	1.04309E+000	1.04365E+000	7.16173E-004	...........
	415	419.467	1.04324E+000	1.04572E+000	7.15497E-004	...........
	416	420.475	1.04357E+000	1.04343E+000	7.16789E-004	...........
	417	421.483	1.04395E+000	1.04372E+000	7.20497E-004	...........
	418	422.492	1.04413E+000	1.04301E+000	7.24389E-004	...........
	419	423.5	1.04395E+000	1.04078E+000	7.21197E-004	...........
	420	424.508	1.04344E+000	1.04287E+000	7.22647E-004	...........
	421	425.517	1.04283E+000	1.04300E+000	7.14814E-004	...........
	422	426.525	1.04247E+000	1.04288E+000	7.14364E-004	...........
	423	427.533	1.04244E+000	1.04132E+000	7.16422E-004	...........
	424	428.542	1.04247E+000	1.04173E+000	7.17547E-004	...........
	425	429.55	1.04234E+000	1.04251E+000	7.12031E-004	...........
	426	430.558	1.04215E+000	1.04293E+000	7.20697E-004	...........
	427	431.567	1.04210E+000	1.04016E+000	7.17697E-004	...........
	428	432.575	1.04207E+000	1.04243E+000	7.13823E-004	...........
	429	433.583	1.04197E+000	1.04342E+000	7.18247E-004	...........
	430	434.592	1.04196E+000	1.04167E+000	7.13481E-004	...........
	431	435.6	1.04213E+000	1.04244E+000	7.10006E-004	...........
	432	436.608	1.04229E+000	1.04224E+000	7.14156E-004	...........
	433	437.617	1.04232E+000	1.04165E+000	7.15247E-004	...........
	434	438.625	1.04225E+000	1.04261E+000	7.13622E-004	...........
	435	439.633	1.04218E+000	1.04226E+000	7.16814E-004	...........
	436	440.642	1.04218E+000	1.04252E+000	7.17047E-004	...........
	437	441.65	1.04222E+000	1.04104E+000	7.13014E-004	...........
	438	442.658	1.04219E+000	1.04164E+000	7.14722E-004	...........
	439	443.667	1.04200E+000	1.04125E+000	7.12664E-004	...........
	440	444.675	1.04174E+000	1.04139E+000	7.13864E-004	...........
	441	445.683	1.04154E+000	1.04221E+000	7.17539E-004	...........
	442	446.692	1.04151E+000	1.04256E+000	7.21014E-004	...........
	443	447.7	1.04170E+000	1.04285E+000	7.19147E-004	...........
	444	448.708	1.04205E+000	1.04395E+000	7.25056E-004	...........
	445	449.717	1.04248E+000	1.04229E+000	7.22064E-004	...........
	446	450.725	1.04280E+000	1.04105E+000	7.11514E-004	...........
	447	451.733	1.04278E+000	1.04181E+000	7.15031E-004	...........
	448	452.742	1.04245E+000	1.04342E+000	7.13431E-004	...........
	449	453.75	1.04219E+000	1.04228E+000	7.14822E-004	...........
	450	454.758	1.04221E+000	1.04250E+000	7.15414E-004	...........
	451	455.767	1.04236E+000	1.04194E+000	7.15139E-004	...........
	452	456.775	1.04242E+000	1.04195E+000	7.15339E-004	...........
	453	457.783	1.04233E+000	1.04220E+000	7.16514E-004	...........
	454	458.792	1.04220E+000	1.04222E+000	7.15289E-004	...........
	455	459.8	1.04212E+000	1.04168E+000	7.11581E-004	...........
	456	460.808	1.04207E+000	1.04170E+000	7.16506E-004	...........
	457	461.817	1.04197E+000	1.04086E+000	7.14964E-004	...........
	458	462.825	1.04181E+000	1.04256E+000	7.14714E-004	...........
	459	463.833	1.04167E+000	1.04132E+000	7.17047E-004	...........
	460	464.842	1.04162E+000	1.04096E+000	7.16631E-004	...........
	461	465.85	1.04160E+000	1.04218E+000	7.21631E-004	...........
	462	466.858	1.04158E+000	1.04277E+000	7.20797E-004	...........
	463	467.867	1.04169E+000	1.04214E+000	7.20831E-004	...........
	464	468.875	1.04191E+000	1.04081E+000	7.19764E-004	...........
	465	469.883	1.04203E+000	1.04237E+000	7.18672E-004	...........
	466	470.892	1.04191E+000	1.03917E+000	7.13597E-004	...........
	467	471.9	1.04156E+000	1.03990E+000	7.13331E-004	...........
	468	472.908	1.04106E+000	1.04179E+000	7.12798E-004	...........
	469	473.917	1.04068E+000	1.04161E+000	7.15923E-004	...........
	470	474.925	1.04066E+000	1.04052E+000	7.12748E-004	...........
	471	475.933	1.04088E+000	1.04085E+000	7.15481E-004	...........
	472	476.942	1.04102E+000	1.04133E+000	7.14547E-004	...........
	473	477.95	1.04102E+000	1.04046E+000	7.13156E-004	...........
	474	478.958	1.04097E+000	1.04075E+000	7.09439E-004	...........
	475	479.967	1.04089E+000	1.04071E+000	7.11473E-004	...........
	476	480.975	1.04078E+000	1.03982E+000	7.11548E-004	...........
	477	481.983	1.04063E+000	1.03947E+000	7.14722E-004	...........
	478	482.992	1.04041E+000	1.04183E+000	7.15464E-004	...........
	479	484	1.04031E+000	1.04145E+000	7.17256E-004	...........
	480	485.008	1.04048E+000	1.04047E+000	7.13514E-004	...........
	481	486.017	1.04077E+000	1.04031E+000	7.18939E-004	...........
	482	487.025	1.04086E+000	1.03932E+000	7.16447E-004	...........
	483	488.033	1.04065E+000	1.04004E+000	7.18039E-004	...........
	484	489.042	1.04030E+000	1.04014E+000	7.16697E-004	...........
	485	490.05	1.04006E+000	1.04108E+000	7.12931E-004	...........
	486	491.058	1.04005E+000	1.03937E+000	7.09923E-004	...........
	487	492.067	1.04013E+000	1.03926E+000	7.11606E-004	...........
	488	493.075	1.04009E+000	1.04011E+000	7.13731E-004	...........
	489	494.083	1.03993E+000	1.04065E+000	7.12848E-004	...........
	490	495.092	1.03988E+000	1.03977E+000	7.17556E-004	...........
	491	496.1	1.03997E+000	1.04063E+000	7.17547E-004	...........
	492	497.108	1.04012E+000	1.04054E+000	7.16489E-004	...........
	493	498.117	1.04023E+000	1.03931E+000	7.15147E-004	...........
	494	499.125	1.04028E+000	1.04133E+000	7.16789E-004	...........
	495	500.133	1.04026E+000	1.03943E+000	7.14814E-004	...........
	496	501.142	1.04024E+000	1.03989E+000	7.16781E-004	...........
	497	502.15	1.04017E+000	1.04010E+000	7.21681E-004	...........
	498	503.158	1.04006E+000	1.03955E+000	7.18064E-004	...........
	499	504.167	1.03993E+000	1.03897E+000	7.14931E-004	...........
	500	505.175	1.03977E+000	1.03961E+000	7.12898E-004	...........
	501	506.183	1.03961E+000	1.04042E+000	7.18414E-004	...........
	502	507.192	1.03958E+000	1.04066E+000	7.15772E-004	...........
	503	508.2	1.03977E+000	1.04029E+000	7.14331E-004	...........
	504	509.208	1.04005E+000	1.03939E+000	7.09106E-004	...........
	505	510.217	1.04014E+000	1.03749E+000	7.09956E-004	...........
	506	511.225	1.03989E+000	1.04057E+000	7.19172E-004	...........
	507	512.233	1.03951E+000	1.04049E+000	7.08973E-004	...........
	508	513.242	1.03943E+000	1.04104E+000	7.17147E-004	...........
	509	514.25	1.03977E+000	1.04084E+000	7.12689E-004	...........
	510	515.258	1.04024E+000	1.03971E+000	7.14322E-004	...........
	511	516.267	1.04051E+000	1.04035E+000	7.14031E-004	...........
	512	517.275	1.04051E+000	1.03992E+000	7.11723E-004	...........
	513	518.283	1.04032E+000	1.03908E+000	7.09939E-004	...........
	514	519.292	1.04005E+000	1.03849E+000	7.08173E-004	...........
	515	520.3	1.03972E+000	1.04035E+000	7.14439E-004	...........
	516	521.308	1.03947E+000	1.04071E+000	7.09939E-004	...........
	517	522.317	1.03951E+000	1.04008E+000	7.09531E-004	...........
	518	523.325	1.03980E+000	1.03971E+000	7.06889E-004	...........
	519	524.333	1.04006E+000	1.04136E+000	7.08031E-004	...........
	520	525.342	1.04025E+000	1.04115E+000	7.08056E-004	...........
	521	526.35	1.04046E+000	1.04042E+000	7.12014E-004	...........
	522	527.358	1.04069E+000	1.04131E+000	7.09039E-004	...........
	523	528.367	1.04082E+000	1.03938E+000	7.04431E-004	...........
	524	529.375	1.04076E+000	1.04048E+000	7.07756E-004	...........
	525	530.383	1.04057E+000	1.04025E+000	7.15397E-004	...........
	526	531.392	1.04037E+000	1.04026E+000	7.13198E-004	...........
	527	532.4	1.04025E+000	1.03988E+000	7.15039E-004	...........
	528	533.408	1.04018E+000	1.03947E+000	7.11423E-004	...........
	529	534.417	1.04008E+000	1.03997E+000	7.07339E-004	...........
	530	535.425	1.03994E+000	1.04003E+000	7.10914E-004	...........
	531	536.433	1.03989E+000	1.04164E+000	7.18206E-004	...........
	532	537.442	1.04004E+000	1.04030E+000	7.12964E-004	...........
	533	538.45	1.04033E+000	1.04035E+000	7.17314E-004	...........
	534	539.458	1.04053E+000	1.03990E+000	7.13956E-004	...........
	535	540.467	1.04052E+000	1.04034E+000	7.15714E-004	...........
	536	541.475	1.04041E+000	1.04149E+000	7.10281E-004	...........
	537	542.483	1.04042E+000	1.04161E+000	7.12664E-004	...........
	538	543.492	1.04067E+000	1.04215E+000	7.11964E-004	...........
	539	544.5	1.04104E+000	1.03920E+000	7.08514E-004	...........
	540	545.508	1.04121E+000	1.04000E+000	7.10239E-004	...........
	541	546.517	1.04098E+000	1.04061E+000	7.15597E-004	...........
	542	547.525	1.04059E+000	1.04052E+000	7.13997E-004	...........
	543	548.533	1.04036E+000	1.04093E+000	7.16356E-004	...........
	544	549.542	1.04035E+000	1.03883E+000	7.09806E-004	...........
	545	550.55	1.04034E+000	1.04045E+000	7.13347E-004	...........
	546	551.558	1.04025E+000	1.04188E+000	7.15581E-004	...........
	547	552.567	1.04028E+000	1.04158E+000	7.10889E-004	...........
	548	553.575	1.04056E+000	1.03901E+000	7.13881E-004	...........
	549	554.583	1.04076E+000	1.03924E+000	7.10748E-004	...........
	550	555.592	1.04057E+000	1.03983E+000	7.12348E-004	...........
	551	556.6	1.04011E+000	1.03921E+000	7.18114E-004	...........
	552	557.608	1.03975E+000	1.04074E+000	7.18139E-004	...........
	553	558.617	1.03964E+000	1.03975E+000	7.09673E-004	...........
	554	559.625	1.03976E+000	1.04065E+000	7.14006E-004	...........
	555	560.633	1.03997E+000	1.04020E+000	7.19181E-004	...........
	556	561.642	1.04014E+000	1.03959E+000	7.11906E-004	...........
	557	562.65	1.04019E+000	1.04009E+000	7.12647E-004	...........
	558	563.658	1.04013E+000	1.04027E+000	7.16306E-004	...........
	559	564.667	1.04007E+000	1.04061E+000	7.04989E-004	...........
	560	565.675	1.04013E+000	1.04116E+000	7.05064E-004	...........
	561	566.683	1.04033E+000	1.04097E+000	7.02956E-004	...........
	562	567.692	1.04057E+000	1.03984E+000	7.05423E-004	...........
	563	568.7	1.04069E+000	1.04021E+000	7.09831E-004	...........
	564	569.708	1.04061E+000	1.04038E+000	7.15064E-004	...........
	565	570.717	1.04041E+000	1.03902E+000	7.03023E-004	...........
	566	571.725	1.04020E+000	1.04125E+000	7.05906E-004	...........
	567	572.733	1.04006E+000	1.03867E+000	7.12256E-004	...........
	568	573.742	1.03995E+000	1.03880E+000	7.06381E-004	...........
	569	574.75	1.03975E+000	1.03956E+000	7.05239E-004	...........
	570	575.758	1.03946E+000	1.03818E+000	7.08489E-004	...........
	571	576.767	1.03919E+000	1.03980E+000	7.13389E-004	...........
	572	577.775	1.03906E+000	1.03942E+000	7.09664E-004	...........
	573	578.783	1.03908E+000	1.03917E+000	7.00264E-004	...........
	574	579.792	1.03918E+000	1.03853E+000	7.05173E-004	...........
	575	580.8	1.03917E+000	1.03718E+000	7.06606E-004	...........
	576	581.808	1.03890E+000	1.03772E+000	7.03323E-004	...........
	577	582.817	1.03845E+000	1.03847E+000	7.14689E-004	...........
	578	583.825	1.03807E+000	1.03730E+000	7.03331E-004	...........
	579	584.833	1.03788E+000	1.03770E+000	7.05639E-004	...........
	580	585.842	1.03778E+000	1.03733E+000	7.09239E-004	...........
	581	586.85	1.03769E+000	1.03778E+000	7.07181E-004	...........
	582	587.858	1.03760E+000	1.03712E+000	7.07089E-004	...........
	583	588.867	1.03754E+000	1.03786E+000	7.16081E-004	...........
	584	589.875	1.03753E+000	1.03849E+000	7.15014E-004	...........
	585	590.883	1.03765E+000	1.03957E+000	7.13698E-004	...........
	586	591.892	1.03799E+000	1.03886E+000	7.12514E-004	...........
	587	592.9	1.03841E+000	1.03776E+000	7.10564E-004	...........
	588	593.908	1.03864E+000	1.03702E+000	7.09181E-004	...........
	589	594.917	1.03849E+000	1.03771E+000	7.09606E-004	...........
	590	595.925	1.03811E+000	1.03867E+000	7.11189E-004	...........
	591	596.933	1.03788E+000	1.03916E+000	7.13306E-004	...........
	592	597.942	1.03800E+000	1.03887E+000	7.10581E-004	...........
	593	598.95	1.03835E+000	1.03911E+000	7.09564E-004	...........
	594	599.958	1.03870E+000	1.03868E+000	7.12256E-004	...........
	595	600.967	1.03887E+000	1.03771E+000	7.06714E-004	...........
	596	601.975	1.03878E+000	1.03718E+000	7.11389E-004	...........
	597	602.983	1.03847E+000	1.03854E+000	7.11573E-004	...........
	598	603.992	1.03814E+000	1.03846E+000	7.09981E-004	...........
	599	605	1.03800E+000	1.03788E+000	7.12822E-004	...........
	600	606.008	1.03803E+000	1.03693E+000	7.06214E-004	...........
	601	607.017	1.03801E+000	1.03879E+000	7.07331E-004	...........
	602	608.025	1.03792E+000	1.03738E+000	6.98364E-004	...........
	603	609.033	1.03784E+000	1.03699E+000	7.02231E-004	...........
	604	610.042	1.03775E+000	1.03783E+000	7.05481E-004	...........
	605	611.05	1.03761E+000	1.03680E+000	7.06206E-004	...........
	606	612.058	1.03747E+000	1.03812E+000	7.06031E-004	...........
	607	613.067	1.03744E+000	1.03889E+000	7.07148E-004	...........
	608	614.075	1.03757E+000	1.03658E+000	7.03331E-004	...........
	609	615.083	1.03773E+000	1.03689E+000	7.05889E-004	...........
	610	616.092	1.03764E+000	1.03495E+000	7.04898E-004	...........
	611	617.1	1.03722E+000	1.03759E+000	7.03806E-004	...........
	612	618.108	1.03676E+000	1.03718E+000	7.04806E-004	...........
	613	619.117	1.03657E+000	1.03569E+000	7.02398E-004	...........
	614	620.125	1.03657E+000	1.03587E+000	7.04123E-004	...........
	615	621.133	1.03649E+000	1.03592E+000	7.05898E-004	...........
	616	622.142	1.03630E+000	1.03714E+000	7.08506E-004	...........
	617	623.15	1.03621E+000	1.03745E+000	7.04431E-004	...........
	618	624.158	1.03642E+000	1.03866E+000	7.08264E-004	...........
	619	625.167	1.03689E+000	1.03778E+000	7.00739E-004	...........
	620	626.175	1.03741E+000	1.03684E+000	7.10314E-004	...........
	621	627.183	1.03768E+000	1.03648E+000	7.08489E-004	...........
	622	628.192	1.03757E+000	1.03721E+000	6.98248E-004	...........
	623	629.2	1.03727E+000	1.03701E+000	7.04139E-004	...........
	624	630.208	1.03703E+000	1.03596E+000	7.03048E-004	...........
	625	631.217	1.03686E+000	1.03639E+000	7.03531E-004	...........
	626	632.225	1.03665E+000	1.03526E+000	7.07239E-004	...........
	627	633.233	1.03640E+000	1.03718E+000	7.08514E-004	...........
	628	634.242	1.03623E+000	1.03702E+000	7.06356E-004	...........
	629	635.25	1.03631E+000	1.03772E+000	7.05139E-004	...........
	630	636.258	1.03661E+000	1.03657E+000	7.11523E-004	...........
	631	637.267	1.03691E+000	1.03632E+000	7.07581E-004	...........
	632	638.275	1.03697E+000	1.03574E+000	7.11281E-004	...........
	633	639.283	1.03675E+000	1.03572E+000	7.12464E-004	...........
	634	640.292	1.03641E+000	1.03667E+000	7.14289E-004	...........
	635	641.3	1.03615E+000	1.03571E+000	7.12614E-004	...........
	636	642.308	1.03605E+000	1.03601E+000	7.09139E-004	...........
	637	643.317	1.03603E+000	1.03572E+000	7.08723E-004	...........
	638	644.325	1.03599E+000	1.03601E+000	7.02881E-004	...........
	639	645.333	1.03593E+000	1.03589E+000	7.09656E-004	...........
	640	646.342	1.03589E+000	1.03536E+000	7.14848E-004	...........
	641	647.35	1.03584E+000	1.03575E+000	7.07081E-004	...........
	642	648.358	1.03576E+000	1.03572E+000	7.08006E-004	...........
	643	649.367	1.03570E+000	1.03568E+000	7.11039E-004	...........
	644	650.375	1.03567E+000	1.03564E+000	7.15806E-004	...........
	645	651.383	1.03567E+000	1.03548E+000	7.20189E-004	...........
	646	652.392	1.03565E+000	1.03570E+000	7.13189E-004	...........
	647	653.4	1.03564E+000	1.03600E+000	7.10556E-004	...........
	648	654.408	1.03565E+000	1.03566E+000	7.12039E-004	...........
	649	655.417	1.03571E+000	1.03599E+000	7.06373E-004	...........
	650	656.425	1.03582E+000	1.03813E+000	7.06156E-004	...........
	651	657.433	1.03606E+000	1.03626E+000	7.15681E-004	...........
	652	658.442	1.03640E+000	1.03610E+000	7.04706E-004	...........
	653	659.45	1.03663E+000	1.03693E+000	7.12148E-004	...........
	654	660.458	1.03666E+000	1.03634E+000	7.12822E-004	...........
	655	661.467	1.03659E+000	1.03629E+000	7.06656E-004	...........
	656	662.475	1.03651E+000	1.03583E+000	7.09406E-004	...........
	657	663.483	1.03640E+000	1.03685E+000	7.02973E-004	...........
	658	664.492	1.03632E+000	1.03662E+000	7.04714E-004	...........
	659	665.5	1.03636E+000	1.03695E+000	7.05706E-004	...........
	660	666.508	1.03648E+000	1.03605E+000	7.06381E-004	...........
	661	667.517	1.03655E+000	1.03504E+000	7.07189E-004	...........
	662	668.525	1.03640E+000	1.03553E+000	7.05131E-004	...........
	663	669.533	1.03607E+000	1.03589E+000	7.03714E-004	...........
	664	670.542	1.03576E+000	1.03534E+000	7.11948E-004	...........
	665	671.55	1.03563E+000	1.03677E+000	7.06781E-004	...........
	666	672.558	1.03566E+000	1.03511E+000	7.08681E-004	...........
	667	673.567	1.03577E+000	1.03599E+000	7.03498E-004	...........
	668	674.575	1.03582E+000	1.03597E+000	7.07323E-004	...........
	669	675.583	1.03584E+000	1.03646E+000	7.07673E-004	...........
	670	676.592	1.03591E+000	1.03616E+000	7.11289E-004	...........
	671	677.6	1.03606E+000	1.03757E+000	7.11856E-004	...........
	672	678.608	1.03630E+000	1.03712E+000	7.10798E-004	...........
	673	679.617	1.03663E+000	1.03763E+000	7.09814E-004	...........
	674	680.625	1.03693E+000	1.03568E+000	7.05589E-004	...........
	675	681.633	1.03703E+000	1.03611E+000	7.09098E-004	...........
	676	682.642	1.03687E+000	1.03723E+000	7.08539E-004	...........
	677	683.65	1.03662E+000	1.03591E+000	7.09514E-004	...........
	678	684.658	1.03644E+000	1.03419E+000	7.10506E-004	...........
	679	685.667	1.03620E+000	1.03614E+000	7.07006E-004	...........
	680	686.675	1.03588E+000	1.03692E+000	7.08873E-004	...........
	681	687.683	1.03576E+000	1.03731E+000	7.12014E-004	...........
	682	688.692	1.03603E+000	1.03771E+000	7.07048E-004	...........
	683	689.7	1.03657E+000	1.03868E+000	7.09373E-004	...........
	684	690.708	1.03710E+000	1.03396E+000	7.14581E-004	...........
	685	691.717	1.03724E+000	1.03496E+000	7.12964E-004	...........
	686	692.725	1.03678E+000	1.03604E+000	7.06414E-004	...........
	687	693.733	1.03606E+000	1.03486E+000	7.21372E-004	...........
	688	694.742	1.03552E+000	1.03416E+000	7.18389E-004	...........
	689	695.75	1.03521E+000	1.03578E+000	7.13639E-004	...........
	690	696.758	1.03506E+000	1.03648E+000	7.19464E-004	...........
	691	697.767	1.03517E+000	1.03661E+000	7.07723E-004	...........
	692	698.775	1.03557E+000	1.03713E+000	7.08731E-004	...........
	693	699.783	1.03609E+000	1.03734E+000	7.07439E-004	...........
	694	700.792	1.03657E+000	1.03692E+000	7.04906E-004	...........
	695	701.8	1.03690E+000	1.03699E+000	7.12473E-004	...........
	696	702.808	1.03701E+000	1.03496E+000	7.15506E-004	...........
	697	703.817	1.03684E+000	1.03534E+000	7.10589E-004	...........
	698	704.825	1.03640E+000	1.03583E+000	7.08431E-004	...........
	699	705.833	1.03593E+000	1.03539E+000	7.04981E-004	...........
	700	706.842	1.03562E+000	1.03481E+000	7.04748E-004	...........
	701	707.85	1.03544E+000	1.03503E+000	7.06973E-004	...........
	702	708.858	1.03529E+000	1.03545E+000	7.10773E-004	...........
	703	709.867	1.03520E+000	1.03606E+000	7.02156E-004	...........
	704	710.875	1.03526E+000	1.03608E+000	7.08381E-004	...........
	705	711.883	1.03550E+000	1.03697E+000	7.10131E-004	...........
	706	712.892	1.03579E+000	1.03328E+000	7.11656E-004	...........
	707	713.9	1.03579E+000	1.03185E+000	7.12264E-004	...........
	708	714.908	1.03519E+000	1.03235E+000	7.04856E-004	...........
	709	715.917	1.03414E+000	1.03254E+000	7.02989E-004	...........
	710	716.925	1.03315E+000	1.03240E+000	7.07731E-004	...........
	711	717.933	1.03260E+000	1.03297E+000	7.05998E-004	...........
	712	718.942	1.03245E+000	1.03277E+000	7.07556E-004	...........
	713	719.95	1.03253E+000	1.03290E+000	7.08114E-004	...........
	714	720.958	1.03269E+000	1.03383E+000	7.09648E-004	...........
	715	721.967	1.03289E+000	1.03337E+000	7.00131E-004	...........
	716	722.975	1.03313E+000	1.03385E+000	7.10373E-004	...........
	717	723.983	1.03337E+000	1.03421E+000	7.09606E-004	...........
	718	724.992	1.03355E+000	1.03157E+000	7.01531E-004	...........
	719	726	1.03352E+000	1.03162E+000	7.13839E-004	...........
	720	727.008	1.03317E+000	1.03349E+000	7.10723E-004	...........
	721	728.017	1.03274E+000	1.03280E+000	7.11573E-004	...........
	722	729.025	1.03259E+000	1.03404E+000	7.12123E-004	...........
	723	730.033	1.03278E+000	1.03366E+000	7.11506E-004	...........
	724	731.042	1.03312E+000	1.03273E+000	7.08914E-004	...........
	725	732.05	1.03335E+000	1.03314E+000	7.05898E-004	...........
	726	733.058	1.03338E+000	1.03396E+000	7.03023E-004	...........
	727	734.067	1.03335E+000	1.03411E+000	7.03773E-004	...........
	728	735.075	1.03344E+000	1.03353E+000	7.08223E-004	...........
	729	736.083	1.03359E+000	1.03230E+000	7.12981E-004	...........
	730	737.092	1.03358E+000	1.03334E+000	7.09448E-004	...........
	731	738.1	1.03339E+000	1.03322E+000	7.08689E-004	...........
	732	739.108	1.03318E+000	1.03248E+000	7.08614E-004	...........
	733	740.117	1.03303E+000	1.03202E+000	7.06914E-004	...........
	734	741.125	1.03286E+000	1.03298E+000	7.06606E-004	...........
	735	742.133	1.03269E+000	1.03313E+000	7.04748E-004	...........
	736	743.142	1.03266E+000	1.03359E+000	7.07306E-004	...........
	737	744.15	1.03283E+000	1.03419E+000	7.05989E-004	...........
	738	745.158	1.03317E+000	1.03460E+000	7.07823E-004	...........
	739	746.167	1.03355E+000	1.03245E+000	7.15481E-004	...........
	740	747.175	1.03378E+000	1.03335E+000	7.05289E-004	...........
	741	748.183	1.03367E+000	1.03101E+000	7.06548E-004	...........
	742	749.192	1.03327E+000	1.03327E+000	7.04964E-004	...........
	743	750.2	1.03279E+000	1.03187E+000	7.08181E-004	...........
	744	751.208	1.03248E+000	1.03302E+000	7.10831E-004	...........
	745	752.217	1.03241E+000	1.03367E+000	7.08239E-004	...........
	746	753.225	1.03257E+000	1.03323E+000	7.13156E-004	...........
	747	754.233	1.03288E+000	1.03412E+000	7.09006E-004	...........
	748	755.242	1.03318E+000	1.03161E+000	7.08181E-004	...........
	749	756.25	1.03331E+000	1.03433E+000	7.04656E-004	...........
	750	757.258	1.03330E+000	1.03448E+000	7.05973E-004	...........
	751	758.267	1.03334E+000	1.03175E+000	7.03439E-004	...........
	752	759.275	1.03340E+000	1.03226E+000	7.07648E-004	...........
	753	760.283	1.03322E+000	1.03196E+000	7.07873E-004	...........
	754	761.292	1.03281E+000	1.03250E+000	7.08281E-004	...........
	755	762.3	1.03243E+000	1.03136E+000	7.07639E-004	...........
	756	763.308	1.03218E+000	1.03195E+000	7.04381E-004	...........
	757	764.317	1.03201E+000	1.03216E+000	7.02906E-004	...........
	758	765.325	1.03193E+000	1.03218E+000	7.09814E-004	...........
	759	766.333	1.03195E+000	1.03243E+000	7.07464E-004	...........
	760	767.342	1.03207E+000	1.03295E+000	7.10131E-004	...........
	761	768.35	1.03224E+000	1.03175E+000	7.10673E-004	...........
	762	769.358	1.03235E+000	1.03180E+000	7.03773E-004	...........
	763	770.367	1.03233E+000	1.03285E+000	7.05373E-004	...........
	764	771.375	1.03226E+000	1.03239E+000	7.12164E-004	...........
	765	772.383	1.03225E+000	1.03182E+000	7.11398E-004	...........
	766	773.392	1.03227E+000	1.03170E+000	7.16347E-004	...........
	767	774.4	1.03223E+000	1.03392E+000	7.06239E-004	...........
	768	775.408	1.03227E+000	1.03319E+000	7.11622E-004	...........
	769	776.417	1.03254E+000	1.03409E+000	7.05331E-004	...........
	770	777.425	1.03294E+000	1.03224E+000	7.18031E-004	...........
	771	778.433	1.03320E+000	1.03198E+000	7.18697E-004	...........
	772	779.442	1.03313E+000	1.03312E+000	7.18322E-004	...........
	773	780.45	1.03284E+000	1.03073E+000	7.16323E-004	...........
	774	781.458	1.03247E+000	1.03117E+000	7.18806E-004	...........
	775	782.467	1.03206E+000	1.03178E+000	7.18231E-004	...........
	776	783.475	1.03171E+000	1.03258E+000	7.23406E-004	...........
	777	784.483	1.03161E+000	1.03185E+000	7.23297E-004	...........
	778	785.492	1.03173E+000	1.03112E+000	7.12723E-004	...........
	779	786.5	1.03178E+000	1.02911E+000	7.15497E-004	...........
	780	787.508	1.03150E+000	1.03050E+000	7.11506E-004	...........
	781	788.517	1.03095E+000	1.02986E+000	7.08006E-004	...........
	782	789.525	1.03045E+000	1.03089E+000	7.16314E-004	...........
	783	790.533	1.03025E+000	1.03200E+000	7.15423E-004	...........
	784	791.542	1.03040E+000	1.03037E+000	7.10839E-004	...........
	785	792.55	1.03071E+000	1.03072E+000	7.09906E-004	...........
	786	793.558	1.03092E+000	1.03174E+000	7.15439E-004	...........
	787	794.567	1.03102E+000	1.03216E+000	7.14656E-004	...........
	788	795.575	1.03119E+000	1.03131E+000	7.13114E-004	...........
	789	796.583	1.03146E+000	1.03388E+000	7.15681E-004	...........
	790	797.592	1.03181E+000	1.03163E+000	7.10581E-004	...........
	791	798.6	1.03211E+000	1.03069E+000	7.15972E-004	...........
	792	799.608	1.03215E+000	1.03103E+000	7.14289E-004	...........
	793	800.617	1.03185E+000	1.03139E+000	7.10106E-004	...........
	794	801.625	1.03146E+000	1.03070E+000	7.17797E-004	...........
	795	802.633	1.03123E+000	1.03305E+000	7.11639E-004	...........
	796	803.642	1.03126E+000	1.03134E+000	7.12731E-004	...........
	797	804.65	1.03148E+000	1.03195E+000	7.04581E-004	...........
	798	805.658	1.03172E+000	1.03188E+000	7.11631E-004	...........
	799	806.667	1.03182E+000	1.03111E+000	7.07798E-004	...........
	800	807.675	1.03178E+000	1.03090E+000	7.10231E-004	...........
	801	808.683	1.03158E+000	1.03001E+000	7.08881E-004	...........
	802	809.692	1.03125E+000	1.03091E+000	7.06956E-004	...........
	803	810.7	1.03092E+000	1.03124E+000	7.09598E-004	...........
	804	811.708	1.03077E+000	1.03163E+000	7.08906E-004	...........
	805	812.717	1.03088E+000	1.03216E+000	7.05248E-004	...........
	806	813.725	1.03115E+000	1.03036E+000	7.09206E-004	...........
	807	814.733	1.03135E+000	1.03036E+000	7.02923E-004	...........
	808	815.742	1.03125E+000	1.02981E+000	7.05331E-004	...........
	809	816.75	1.03090E+000	1.03018E+000	7.09064E-004	...........
	810	817.758	1.03054E+000	1.03271E+000	7.04248E-004	...........
	811	818.767	1.03051E+000	1.03194E+000	7.10164E-004	...........
	812	819.775	1.03087E+000	1.03081E+000	7.13097E-004	...........
	813	820.783	1.03125E+000	1.02884E+000	7.12106E-004	...........
	814	821.792	1.03121E+000	1.03033E+000	7.07031E-004	...........
	815	822.8	1.03075E+000	1.02938E+000	7.09973E-004	...........
	816	823.808	1.03022E+000	1.02992E+000	7.09614E-004	...........
	817	824.817	1.02991E+000	1.03093E+000	7.16222E-004	...........
	818	825.825	1.02990E+000	1.03149E+000	7.14947E-004	...........
	819	826.833	1.03016E+000	1.02981E+000	7.11398E-004	...........
	820	827.842	1.03043E+000	1.02854E+000	7.12298E-004	...........
	821	828.85	1.03037E+000	1.02873E+000	7.13631E-004	...........
	822	829.858	1.02991E+000	1.02857E+000	7.14181E-004	...........
	823	830.867	1.02929E+000	1.02641E+000	7.05789E-004	...........
	824	831.875	1.02869E+000	1.02925E+000	7.16997E-004	...........
	825	832.883	1.02827E+000	1.02965E+000	7.12939E-004	...........
	826	833.892	1.02825E+000	1.03004E+000	7.14339E-004	...........
	827	834.9	1.02869E+000	1.03090E+000	7.13148E-004	...........
	828	835.908	1.02934E+000	1.03072E+000	7.16272E-004	...........
	829	836.917	1.02997E+000	1.03086E+000	7.09814E-004	...........
	830	837.925	1.03045E+000	1.03123E+000	7.09106E-004	...........
	831	838.933	1.03071E+000	1.02938E+000	7.13597E-004	...........
	832	839.942	1.03078E+000	1.03175E+000	7.13823E-004	...........
	833	840.95	1.03070E+000	1.02934E+000	7.11898E-004	...........
	834	841.958	1.03058E+000	1.03044E+000	7.11139E-004	...........
	835	842.967	1.03045E+000	1.03053E+000	7.12348E-004	...........
	836	843.975	1.03036E+000	1.03113E+000	7.16514E-004	...........
	837	844.983	1.03043E+000	1.03216E+000	7.12556E-004	...........
	838	845.992	1.03072E+000	1.03138E+000	7.09156E-004	...........
	839	847	1.03107E+000	1.02941E+000	7.05814E-004	...........
	840	848.008	1.03119E+000	1.03095E+000	7.07339E-004	...........
	841	849.017	1.03099E+000	1.02983E+000	7.11723E-004	...........
	842	850.025	1.03066E+000	1.03022E+000	7.11948E-004	...........
	843	851.033	1.03039E+000	1.03037E+000	7.09498E-004	...........
	844	852.042	1.03020E+000	1.02765E+000	7.10556E-004	...........
	845	853.05	1.02992E+000	1.02804E+000	7.15106E-004	...........
	846	854.058	1.02940E+000	1.02811E+000	7.20031E-004	...........
	847	855.067	1.02880E+000	1.02851E+000	7.12048E-004	...........
	848	856.075	1.02837E+000	1.02787E+000	7.22939E-004	...........
	849	857.083	1.02821E+000	1.02929E+000	7.08964E-004	...........
	850	858.092	1.02824E+000	1.02785E+000	7.17756E-004	...........
	851	859.1	1.02838E+000	1.03052E+000	7.20206E-004	...........
	852	860.108	1.02863E+000	1.02942E+000	7.15839E-004	...........
	853	861.117	1.02895E+000	1.02807E+000	7.24689E-004	...........
	854	862.125	1.02916E+000	1.02899E+000	7.18222E-004	...........
	855	863.133	1.02912E+000	1.02838E+000	7.08973E-004	...........
	856	864.142	1.02892E+000	1.02908E+000	7.10589E-004	...........
	857	865.15	1.02877E+000	1.02835E+000	7.11906E-004	...........
	858	866.158	1.02869E+000	1.02855E+000	7.08348E-004	...........
	859	867.167	1.02864E+000	1.02849E+000	7.14472E-004	...........
	860	868.175	1.02860E+000	1.02893E+000	7.11964E-004	...........
	861	869.183	1.02858E+000	1.02830E+000	7.12614E-004	...........
	862	870.192	1.02861E+000	1.02980E+000	7.08323E-004	...........
	863	871.2	1.02873E+000	1.03014E+000	7.12256E-004	...........
	864	872.208	1.02896E+000	1.02719E+000	7.08131E-004	...........
	865	873.217	1.02909E+000	1.02828E+000	7.03931E-004	...........
	866	874.225	1.02892E+000	1.02811E+000	7.05656E-004	...........
	867	875.233	1.02860E+000	1.03003E+000	7.05748E-004	...........
	868	876.242	1.02849E+000	1.02998E+000	7.10748E-004	...........
	869	877.25	1.02875E+000	1.02897E+000	7.09573E-004	...........
	870	878.258	1.02914E+000	1.02894E+000	7.07689E-004	...........
	871	879.267	1.02933E+000	1.02889E+000	7.12531E-004	...........
	872	880.275	1.02926E+000	1.02856E+000	7.11539E-004	...........
	873	881.283	1.02906E+000	1.02819E+000	7.05014E-004	...........
	874	882.292	1.02883E+000	1.02893E+000	7.09573E-004	...........
	875	883.3	1.02868E+000	1.02956E+000	7.05389E-004	...........
	876	884.308	1.02867E+000	1.02801E+000	7.08331E-004	...........
	877	885.317	1.02869E+000	1.02529E+000	7.04856E-004	...........
	878	886.325	1.02841E+000	1.02769E+000	7.16856E-004	...........
	879	887.333	1.02786E+000	1.02929E+000	7.19439E-004	...........
	880	888.342	1.02752E+000	1.02726E+000	7.18331E-004	...........
	881	889.35	1.02755E+000	1.02604E+000	7.10531E-004	...........
	882	890.358	1.02754E+000	1.02488E+000	7.01281E-004	...........
	883	891.367	1.02714E+000	1.02630E+000	7.07289E-004	...........
	884	892.375	1.02652E+000	1.02635E+000	7.04464E-004	...........
	885	893.383	1.02608E+000	1.02564E+000	7.04523E-004	...........
	886	894.392	1.02594E+000	1.02593E+000	7.11356E-004	...........
	887	895.4	1.02592E+000	1.02563E+000	7.12531E-004	...........
	888	896.408	1.02591E+000	1.02664E+000	7.07023E-004	...........
	889	897.417	1.02588E+000	1.02408E+000	7.15981E-004	...........
	890	898.425	1.02577E+000	1.02387E+000	7.10681E-004	...........
	891	899.433	1.02542E+000	1.02504E+000	7.03806E-004	...........
	892	900.442	1.02499E+000	1.02606E+000	7.11548E-004	...........
	893	901.45	1.02484E+000	1.02619E+000	7.09131E-004	...........
	894	902.458	1.02507E+000	1.02538E+000	7.10547E-004	...........
	895	903.467	1.02545E+000	1.02607E+000	7.10756E-004	...........
	896	904.475	1.02568E+000	1.02418E+000	7.09189E-004	...........
	897	905.483	1.02564E+000	1.02454E+000	7.11489E-004	...........
	898	906.492	1.02536E+000	1.02552E+000	7.10739E-004	...........
	899	907.5	1.02512E+000	1.02732E+000	7.12923E-004	...........
	900	908.508	1.02521E+000	1.02611E+000	7.09356E-004	...........
	901	909.517	1.02564E+000	1.02687E+000	7.12814E-004	...........
	902	910.525	1.02609E+000	1.02470E+000	7.07864E-004	...........
	903	911.533	1.02625E+000	1.02589E+000	7.16081E-004	...........
	904	912.542	1.02611E+000	1.02592E+000	7.15681E-004	...........
	905	913.55	1.02588E+000	1.02566E+000	7.11814E-004	...........
	906	914.558	1.02574E+000	1.02501E+000	7.13356E-004	...........
	907	915.567	1.02567E+000	1.02650E+000	7.12698E-004	...........
	908	916.575	1.02562E+000	1.02425E+000	7.11081E-004	...........
	909	917.583	1.02554E+000	1.02526E+000	7.08981E-004	...........
	910	918.592	1.02539E+000	1.02492E+000	7.08723E-004	...........
	911	919.6	1.02520E+000	1.02486E+000	7.10914E-004	...........
	912	920.608	1.02505E+000	1.02483E+000	7.10264E-004	...........
	913	921.617	1.02496E+000	1.02511E+000	7.09756E-004	...........
	914	922.625	1.02494E+000	1.02618E+000	7.13847E-004	...........
	915	923.633	1.02505E+000	1.02482E+000	7.15931E-004	...........
	916	924.642	1.02520E+000	1.02458E+000	7.15047E-004	...........
	917	925.65	1.02526E+000	1.02599E+000	7.17047E-004	...........
	918	926.658	1.02523E+000	1.02510E+000	7.16756E-004	...........
	919	927.667	1.02522E+000	1.02480E+000	7.16889E-004	...........
	920	928.675	1.02520E+000	1.02420E+000	7.16139E-004	...........
	921	929.683	1.02508E+000	1.02515E+000	7.08789E-004	...........
	922	930.692	1.02489E+000	1.02432E+000	7.17247E-004	...........
	923	931.7	1.02475E+000	1.02502E+000	7.14264E-004	...........
	924	932.708	1.02468E+000	1.02398E+000	7.13872E-004	...........
	925	933.717	1.02465E+000	1.02535E+000	7.13123E-004	...........
	926	934.725	1.02464E+000	1.02490E+000	7.07564E-004	...........
	927	935.733	1.02467E+000	1.02314E+000	7.07614E-004	...........
	928	936.742	1.02461E+000	1.02327E+000	7.06439E-004	...........
	929	937.75	1.02432E+000	1.02360E+000	7.05539E-004	...........
	930	938.758	1.02395E+000	1.02534E+000	7.06589E-004	...........
	931	939.767	1.02385E+000	1.02601E+000	7.09589E-004	...........
	932	940.775	1.02418E+000	1.02489E+000	7.07798E-004	...........
	933	941.783	1.02472E+000	1.02577E+000	7.11348E-004	...........
	934	942.792	1.02513E+000	1.02384E+000	7.07748E-004	...........
	935	943.8	1.02523E+000	1.02519E+000	7.09931E-004	...........
	936	944.808	1.02508E+000	1.02387E+000	7.06331E-004	...........
	937	945.817	1.02482E+000	1.02424E+000	7.09323E-004	...........
	938	946.825	1.02457E+000	1.02490E+000	7.09356E-004	...........
	939	947.833	1.02445E+000	1.02550E+000	7.14664E-004	...........
	940	948.842	1.02453E+000	1.02480E+000	7.12106E-004	...........
	941	949.85	1.02476E+000	1.02582E+000	7.12614E-004	...........
	942	950.86	1.02501E+000	1.02503E+000	7.11431E-004	...........
	943	951.87	1.02517E+000	1.02389E+000	7.08589E-004	...........
	944	952.88	1.02512E+000	1.02422E+000	7.05523E-004	...........
	945	953.88	1.02487E+000	1.02451E+000	7.07939E-004	...........
	946	954.89	1.02462E+000	1.02710E+000	7.15339E-004	...........
	947	955.9	1.02469E+000	1.02582E+000	7.05398E-004	...........
	948	956.91	1.02511E+000	1.02549E+000	7.10973E-004	...........
	949	957.92	1.02556E+000	1.02537E+000	6.98889E-004	...........
	950	958.92	1.02572E+000	1.02437E+000	7.02406E-004	...........
	951	959.93	1.02555E+000	1.02417E+000	7.02923E-004	...........
	952	960.94	1.02515E+000	1.02328E+000	7.00389E-004	...........
	953	961.95	1.02465E+000	1.02414E+000	7.04639E-004	...........
	954	962.96	1.02421E+000	1.02380E+000	7.01398E-004	...........
	955	963.97	1.02396E+000	1.02529E+000	7.04839E-004	...........
	956	964.97	1.02397E+000	1.02338E+000	7.11856E-004	...........
	957	965.98	1.02412E+000	1.02469E+000	7.08973E-004	...........
	958	966.99	1.02421E+000	1.02335E+000	6.98714E-004	...........
	959	968	1.02414E+000	1.02208E+000	7.03314E-004	...........
	960	969.01	1.02385E+000	1.02284E+000	7.09956E-004	...........
	961	970.02	1.02340E+000	1.02334E+000	7.04823E-004	...........
	962	971.02	1.02308E+000	1.02469E+000	6.99123E-004	...........
	963	972.03	1.02314E+000	1.02516E+000	7.02698E-004	...........
	964	973.04	1.02358E+000	1.02479E+000	7.06456E-004	...........
	965	974.05	1.02413E+000	1.02311E+000	7.09673E-004	...........
	966	975.06	1.02442E+000	1.02366E+000	7.12839E-004	...........
	967	976.07	1.02430E+000	1.02333E+000	7.10723E-004	...........
	968	977.08	1.02397E+000	1.02388E+000	7.10281E-004	...........
	969	978.08	1.02372E+000	1.02442E+000	7.15622E-004	...........
	970	979.09	1.02369E+000	1.02392E+000	7.09964E-004	...........
	971	980.1	1.02386E+000	1.02618E+000	7.02956E-004	...........
	972	981.11	1.02415E+000	1.02275E+000	7.14806E-004	...........
	973	982.12	1.02435E+000	1.02249E+000	7.08214E-004	...........
	974	983.13	1.02418E+000	1.02276E+000	7.09414E-004	...........
	975	984.13	1.02369E+000	1.02369E+000	7.04723E-004	...........
	976	985.14	1.02325E+000	1.02321E+000	7.06814E-004	...........
	977	986.15	1.02311E+000	1.02362E+000	7.11031E-004	...........
	978	987.16	1.02318E+000	1.02314E+000	7.10214E-004	...........
	979	988.17	1.02327E+000	1.02198E+000	7.03489E-004	...........
	980	989.17	1.02320E+000	1.02276E+000	7.11264E-004	...........
	981	990.18	1.02299E+000	1.02342E+000	7.06306E-004	...........
	982	991.19	1.02284E+000	1.02383E+000	7.10648E-004	...........
	983	992.2	1.02295E+000	1.02439E+000	7.12439E-004	...........
	984	993.21	1.02331E+000	1.02539E+000	7.17389E-004	...........
	985	994.22	1.02383E+000	1.02507E+000	7.10881E-004	...........
	986	995.22	1.02437E+000	1.02497E+000	7.10947E-004	...........
	987	996.23	1.02476E+000	1.02373E+000	7.03623E-004	...........
	988	997.24	1.02486E+000	1.02462E+000	7.08573E-004	...........
	989	998.25	1.02471E+000	1.02430E+000	7.14581E-004	...........
	990	999.26	1.02451E+000	1.02412E+000	7.11531E-004	...........
	991	1000.27	1.02436E+000	1.02401E+000	7.11223E-004	...........
	992	1001.27	1.02423E+000	1.02234E+000	7.12198E-004	...........
	993	1002.28	1.02399E+000	1.02360E+000	7.08964E-004	...........
	994	1003.29	1.02366E+000	1.02346E+000	7.10364E-004	...........
	995	1004.3	1.02341E+000	1.02344E+000	7.10606E-004	...........
	996	1005.31	1.02330E+000	1.02134E+000	7.06614E-004	...........
	997	1006.32	1.02311E+000	1.02114E+000	7.04656E-004	...........
	998	1007.33	1.02268E+000	1.02145E+000	7.10031E-004	...........
	999	1008.33	1.02217E+000	1.02467E+000	7.10589E-004	...........
	1000	1009.34	1.02204E+000	1.02426E+000	7.10773E-004	...........
	1001	1010.35	1.02244E+000	1.02174E+000	7.14981E-004	...........
	1002	1011.36	1.02297E+000	1.02315E+000	7.12906E-004	...........
	1003	1012.37	1.02318E+000	1.02321E+000	7.07031E-004	...........
	1004	1013.38	1.02310E+000	1.02215E+000	7.05956E-004	...........
	1005	1014.38	1.02296E+000	1.02368E+000	7.08856E-004	...........
	1006	1015.39	1.02291E+000	1.02335E+000	7.06073E-004	...........
	1007	1016.4	1.02296E+000	1.02271E+000	7.08273E-004	...........
	1008	1017.41	1.02312E+000	1.02592E+000	7.06514E-004	...........
	1009	1018.42	1.02337E+000	1.02243E+000	7.07273E-004	...........
	1010	1019.42	1.02362E+000	1.02223E+000	7.13198E-004	...........
	1011	1020.43	1.02362E+000	1.02333E+000	7.10514E-004	...........
	1012	1021.44	1.02335E+000	1.02345E+000	7.10048E-004	...........
	1013	1022.45	1.02312E+000	1.02302E+000	7.08731E-004	...........
	1014	1023.46	1.02305E+000	1.02202E+000	7.06181E-004	...........
	1015	1024.47	1.02301E+000	1.02333E+000	7.03456E-004	...........
	1016	1025.47	1.02291E+000	1.02305E+000	7.08314E-004	...........
	1017	1026.48	1.02282E+000	1.02048E+000	7.07481E-004	...........
	1018	1027.49	1.02259E+000	1.01956E+000	7.00606E-004	...........
	1019	1028.5	1.02204E+000	1.02097E+000	7.13723E-004	...........
	1020	1029.51	1.02131E+000	1.02079E+000	7.06556E-004	...........
	1021	1030.52	1.02081E+000	1.02220E+000	7.08014E-004	...........
	1022	1031.53	1.02079E+000	1.02221E+000	7.05514E-004	...........
	1023	1032.53	1.02114E+000	1.02247E+000	7.07048E-004	...........
	1024	1033.54	1.02166E+000	1.02390E+000	7.12089E-004	...........
	1025	1034.55	1.02220E+000	1.02253E+000	7.11806E-004	...........
	1026	1035.56	1.02267E+000	1.02384E+000	7.06789E-004	...........
	1027	1036.57	1.02298E+000	1.02203E+000	7.01948E-004	...........
	1028	1037.57	1.02309E+000	1.02322E+000	7.08948E-004	...........
	1029	1038.58	1.02302E+000	1.02178E+000	7.01231E-004	...........
	1030	1039.59	1.02282E+000	1.02195E+000	7.08206E-004	...........
	1031	1040.6	1.02255E+000	1.02187E+000	7.03848E-004	...........
	1032	1041.61	1.02226E+000	1.02192E+000	7.03639E-004	...........
	1033	1042.62	1.02207E+000	1.02313E+000	7.05448E-004	...........
	1034	1043.63	1.02203E+000	1.02038E+000	7.07706E-004	...........
	1035	1044.63	1.02201E+000	1.02168E+000	7.02689E-004	...........
	1036	1045.64	1.02188E+000	1.02229E+000	7.06748E-004	...........
	1037	1046.65	1.02176E+000	1.02331E+000	7.08039E-004	...........
	1038	1047.66	1.02189E+000	1.02286E+000	7.09348E-004	...........
	1039	1048.67	1.02219E+000	1.01962E+000	7.09281E-004	...........
	1040	1049.68	1.02224E+000	1.02017E+000	7.01173E-004	...........
	1041	1050.68	1.02186E+000	1.02341E+000	7.00439E-004	...........
	1042	1051.69	1.02149E+000	1.02491E+000	7.13022E-004	...........
	1043	1052.7	1.02173E+000	1.02186E+000	7.10931E-004	...........
	1044	1053.71	1.02233E+000	1.02004E+000	7.06548E-004	...........
	1045	1054.72	1.02252E+000	1.01960E+000	7.11964E-004	...........
	1046	1055.72	1.02195E+000	1.01895E+000	7.09864E-004	...........
	1047	1056.73	1.02098E+000	1.02116E+000	7.10614E-004	...........
	1048	1057.74	1.02023E+000	1.01971E+000	6.98723E-004	...........
	1049	1058.75	1.01997E+000	1.02162E+000	7.05281E-004	...........
	1050	1059.76	1.02013E+000	1.02114E+000	7.08998E-004	...........
	1051	1060.77	1.02047E+000	1.02007E+000	7.09173E-004	...........
	1052	1061.78	1.02073E+000	1.02103E+000	7.07156E-004	...........
	1053	1062.78	1.02077E+000	1.01871E+000	7.08314E-004	...........
	1054	1063.79	1.02059E+000	1.02104E+000	7.14589E-004	...........
	1055	1064.8	1.02033E+000	1.01986E+000	7.09673E-004	...........
	1056	1065.81	1.02017E+000	1.02078E+000	7.05298E-004	...........
	1057	1066.82	1.02017E+000	1.01964E+000	7.08456E-004	...........
	1058	1067.82	1.02026E+000	1.02297E+000	7.04764E-004	...........
	1059	1068.83	1.02049E+000	1.02112E+000	7.07831E-004	...........
	1060	1069.84	1.02082E+000	1.01829E+000	7.06623E-004	...........
	1061	1070.85	1.02095E+000	1.02173E+000	7.04523E-004	...........
	1062	1071.86	1.02075E+000	1.01962E+000	7.04814E-004	...........
	1063	1072.87	1.02047E+000	1.02028E+000	6.99973E-004	...........
	1064	1073.88	1.02030E+000	1.01979E+000	7.05081E-004	...........
	1065	1074.88	1.02016E+000	1.01902E+000	7.01523E-004	...........
	1066	1075.89	1.01998E+000	1.02032E+000	7.01789E-004	...........
	1067	1076.9	1.01983E+000	1.02045E+000	7.03723E-004	...........
	1068	1077.91	1.01980E+000	1.01914E+000	6.98556E-004	...........
	1069	1078.92	1.01986E+000	1.01980E+000	7.03264E-004	...........
	1070	1079.93	1.01988E+000	1.02111E+000	7.07248E-004	...........
	1071	1080.93	1.01994E+000	1.02119E+000	7.06123E-004	...........
	1072	1081.94	1.02019E+000	1.02050E+000	7.01939E-004	...........
	1073	1082.95	1.02050E+000	1.02010E+000	6.97289E-004	...........
	1074	1083.96	1.02063E+000	1.01925E+000	6.99823E-004	...........
	1075	1084.97	1.02047E+000	1.01991E+000	6.95406E-004	...........
	1076	1085.97	1.02014E+000	1.01889E+000	6.98039E-004	...........
	1077	1086.98	1.01979E+000	1.01929E+000	7.03889E-004	...........
	1078	1087.99	1.01950E+000	1.01824E+000	7.08814E-004	...........
	1079	1089	1.01922E+000	1.01853E+000	7.04873E-004	...........
	1080	1090.01	1.01899E+000	1.02115E+000	6.98973E-004	...........
	1081	1091.02	1.01897E+000	1.01872E+000	7.03256E-004	...........
	1082	1092.03	1.01915E+000	1.01803E+000	7.09673E-004	...........
	1083	1093.03	1.01922E+000	1.01754E+000	7.08314E-004	...........
	1084	1094.04	1.01893E+000	1.01797E+000	7.09239E-004	...........
	1085	1095.05	1.01846E+000	1.01800E+000	7.06348E-004	...........
	1086	1096.06	1.01810E+000	1.01851E+000	7.02131E-004	...........
	1087	1097.07	1.01802E+000	1.01955E+000	7.02456E-004	...........
	1088	1098.07	1.01824E+000	1.02049E+000	7.08848E-004	...........
	1089	1099.08	1.01869E+000	1.01834E+000	7.09106E-004	...........
	1090	1100.09	1.01912E+000	1.01829E+000	6.98006E-004	...........
	1091	1101.1	1.01928E+000	1.02200E+000	6.97856E-004	...........
	1092	1102.11	1.01937E+000	1.02021E+000	6.95489E-004	...........
	1093	1103.12	1.01966E+000	1.01951E+000	6.98281E-004	...........
	1094	1104.13	1.02001E+000	1.01985E+000	7.00406E-004	...........
	1095	1105.13	1.02012E+000	1.01989E+000	7.00048E-004	...........
	1096	1106.14	1.02005E+000	1.02121E+000	7.03506E-004	...........
	1097	1107.15	1.02002E+000	1.01838E+000	7.01723E-004	...........
	1098	1108.16	1.01998E+000	1.01778E+000	7.03448E-004	...........
	1099	1109.17	1.01964E+000	1.01683E+000	6.98898E-004	...........
	1100	1110.18	1.01892E+000	1.01672E+000	6.95631E-004	...........
	1101	1111.18	1.01810E+000	1.01810E+000	6.97948E-004	...........
	1102	1112.19	1.01752E+000	1.01770E+000	7.03514E-004	...........
	1103	1113.2	1.01736E+000	1.01786E+000	7.05981E-004	...........
	1104	1114.21	1.01746E+000	1.01648E+000	7.04806E-004	...........
	1105	1115.22	1.01750E+000	1.01670E+000	7.01348E-004	...........
	1106	1116.22	1.01735E+000	1.01672E+000	7.00956E-004	...........
	1107	1117.23	1.01708E+000	1.01707E+000	7.00614E-004	...........
	1108	1118.24	1.01694E+000	1.01947E+000	7.06906E-004	...........
	1109	1119.25	1.01713E+000	1.01884E+000	7.02348E-004	...........
	1110	1120.26	1.01767E+000	1.01951E+000	7.05273E-004	...........
	1111	1121.27	1.01834E+000	1.01943E+000	7.08723E-004	...........
	1112	1122.28	1.01889E+000	1.01934E+000	7.09114E-004	...........
	1113	1123.28	1.01919E+000	1.01747E+000	7.07414E-004	...........
	1114	1124.29	1.01916E+000	1.01814E+000	7.13522E-004	...........
	1115	1125.3	1.01884E+000	1.01849E+000	7.07698E-004	...........
	1116	1126.31	1.01845E+000	1.01627E+000	7.13597E-004	...........
	1117	1127.32	1.01806E+000	1.01683E+000	7.05714E-004	...........
	1118	1128.32	1.01767E+000	1.01827E+000	6.97989E-004	...........
	1119	1129.33	1.01742E+000	1.01963E+000	7.09181E-004	...........
	1120	1130.34	1.01752E+000	1.01595E+000	7.09606E-004	...........
	1121	1131.35	1.01773E+000	1.01589E+000	7.09523E-004	...........
	1122	1132.36	1.01759E+000	1.01559E+000	7.09123E-004	...........
	1123	1133.37	1.01703E+000	1.01640E+000	7.11556E-004	...........
	1124	1134.38	1.01649E+000	1.01856E+000	7.08048E-004	...........
	1125	1135.38	1.01640E+000	1.01830E+000	7.07906E-004	...........
	1126	1136.39	1.01683E+000	1.01733E+000	7.09056E-004	...........
	1127	1137.4	1.01737E+000	1.01665E+000	7.09573E-004	...........
	1128	1138.41	1.01758E+000	1.01627E+000	7.12889E-004	...........
	1129	1139.42	1.01738E+000	1.01640E+000	7.10306E-004	...........
	1130	1140.43	1.01699E+000	1.01671E+000	7.13689E-004	...........
	1131	1141.43	1.01665E+000	1.01532E+000	7.10489E-004	...........
	1132	1142.44	1.01642E+000	1.01709E+000	7.13298E-004	...........
	1133	1143.45	1.01636E+000	1.01937E+000	7.11981E-004	...........
	1134	1144.46	1.01663E+000	1.01852E+000	7.10214E-004	...........
	1135	1145.47	1.01727E+000	1.01773E+000	7.03881E-004	...........
	1136	1146.47	1.01787E+000	1.01704E+000	7.01789E-004	...........
	1137	1147.48	1.01808E+000	1.01793E+000	7.11381E-004	...........
	1138	1148.49	1.01798E+000	1.01939E+000	7.16106E-004	...........
	1139	1149.5	1.01791E+000	1.01630E+000	7.16922E-004	...........
	1140	1150.51	1.01792E+000	1.01773E+000	7.11581E-004	...........
	1141	1151.52	1.01784E+000	1.01733E+000	7.07206E-004	...........
	1142	1152.53	1.01758E+000	1.01423E+000	7.04939E-004	...........
	1143	1153.53	1.01717E+000	1.01720E+000	7.07748E-004	...........
	1144	1154.54	1.01671E+000	1.01824E+000	7.12606E-004	...........
	1145	1155.55	1.01655E+000	1.01750E+000	7.08848E-004	...........
	1146	1156.56	1.01678E+000	1.01529E+000	7.15322E-004	...........
	1147	1157.57	1.01698E+000	1.01582E+000	7.13006E-004	...........
	1148	1158.57	1.01679E+000	1.01559E+000	7.12131E-004	...........
	1149	1159.58	1.01635E+000	1.01568E+000	7.11256E-004	...........
	1150	1160.59	1.01595E+000	1.01573E+000	7.06581E-004	...........
	1151	1161.6	1.01574E+000	1.01582E+000	7.05114E-004	...........
	1152	1162.61	1.01571E+000	1.01738E+000	7.10898E-004	...........
	1153	1163.62	1.01594E+000	1.01959E+000	7.06673E-004	...........
	1154	1164.63	1.01649E+000	1.01659E+000	7.03098E-004	...........
	1155	1165.63	1.01715E+000	1.01661E+000	7.02773E-004	...........
	1156	1166.64	1.01746E+000	1.01600E+000	7.11673E-004	...........
	1157	1167.65	1.01722E+000	1.01373E+000	7.10431E-004	...........
	1158	1168.66	1.01656E+000	1.01495E+000	7.04606E-004	...........
	1159	1169.67	1.01579E+000	1.01708E+000	7.07106E-004	...........
	1160	1170.68	1.01539E+000	1.01745E+000	7.03989E-004	...........
	1161	1171.68	1.01559E+000	1.01574E+000	7.03873E-004	...........
	1162	1172.69	1.01611E+000	1.01866E+000	7.12548E-004	...........
	1163	1173.7	1.01658E+000	1.01480E+000	7.06673E-004	...........
	1164	1174.71	1.01686E+000	1.01995E+000	7.11781E-004	...........
	1165	1175.72	1.01706E+000	1.01716E+000	7.07231E-004	...........
	1166	1176.72	1.01732E+000	1.01699E+000	7.08056E-004	...........
	1167	1177.73	1.01753E+000	1.01711E+000	7.09814E-004	...........
	1168	1178.74	1.01751E+000	1.01675E+000	7.09081E-004	...........
	1169	1179.75	1.01731E+000	1.01684E+000	7.03498E-004	...........
	1170	1180.76	1.01706E+000	1.01549E+000	7.05914E-004	...........
	1171	1181.77	1.01678E+000	1.01589E+000	7.06456E-004	...........
	1172	1182.78	1.01644E+000	1.01558E+000	7.05048E-004	...........
	1173	1183.78	1.01613E+000	1.01740E+000	7.07781E-004	...........
	1174	1184.79	1.01598E+000	1.01375E+000	7.06273E-004	...........
	1175	1185.8	1.01590E+000	1.01541E+000	7.07173E-004	...........
	1176	1186.81	1.01576E+000	1.01931E+000	7.11706E-004	...........
	1177	1187.82	1.01582E+000	1.01602E+000	7.07489E-004	...........
	1178	1188.82	1.01622E+000	1.01642E+000	7.06198E-004	...........
	1179	1189.83	1.01659E+000	1.01444E+000	7.06064E-004	...........
	1180	1190.84	1.01654E+000	1.01650E+000	7.08048E-004	...........
	1181	1191.85	1.01618E+000	1.01551E+000	7.09956E-004	...........
	1182	1192.86	1.01587E+000	1.01615E+000	7.08681E-004	...........
	1183	1193.87	1.01578E+000	1.01620E+000	7.15164E-004	...........
	1184	1194.88	1.01586E+000	1.01675E+000	7.11214E-004	...........
	1185	1195.88	1.01603E+000	1.01570E+000	7.05873E-004	...........
	1186	1196.89	1.01619E+000	1.01732E+000	7.03598E-004	...........
	1187	1197.9	1.01637E+000	1.01837E+000	7.05173E-004	...........
	1188	1198.91	1.01664E+000	1.01617E+000	7.06848E-004	...........
	1189	1199.92	1.01695E+000	1.01639E+000	7.07556E-004	...........
	1190	1200.93	1.01703E+000	1.01598E+000	7.03689E-004	...........
	1191	1201.93	1.01680E+000	1.01533E+000	7.15289E-004	...........
	1192	1202.94	1.01641E+000	1.01575E+000	7.13447E-004	...........
	1193	1203.95	1.01601E+000	1.01437E+000	7.13989E-004	...........
	1194	1204.96	1.01564E+000	1.01508E+000	7.10181E-004	...........
	1195	1205.97	1.01535E+000	1.01711E+000	7.12439E-004	...........
	1196	1206.97	1.01527E+000	1.01420E+000	7.09573E-004	...........
	1197	1207.98	1.01536E+000	1.01494E+000	7.06456E-004	...........
	1198	1208.99	1.01532E+000	1.01278E+000	7.07289E-004	...........
	1199	1210	1.01497E+000	1.01364E+000	7.07814E-004	...........
	1200	1211.01	1.01443E+000	1.01488E+000	7.14431E-004	...........
	1201	1212.02	1.01407E+000	1.01595E+000	7.15314E-004	...........
	1202	1213.03	1.01417E+000	1.01539E+000	7.06281E-004	...........
	1203	1214.03	1.01465E+000	1.01630E+000	7.11931E-004	...........
	1204	1215.04	1.01520E+000	1.01600E+000	7.02489E-004	...........
	1205	1216.05	1.01562E+000	1.01488E+000	7.06598E-004	...........
	1206	1217.06	1.01576E+000	1.01464E+000	7.01873E-004	...........
	1207	1218.07	1.01560E+000	1.01445E+000	7.05956E-004	...........
	1208	1219.07	1.01525E+000	1.01483E+000	7.08414E-004	...........
	1209	1220.08	1.01489E+000	1.01360E+000	7.09989E-004	...........
	1210	1221.09	1.01462E+000	1.01492E+000	7.15381E-004	...........
	1211	1222.1	1.01444E+000	1.01412E+000	7.12073E-004	...........
	1212	1223.11	1.01434E+000	1.01353E+000	7.06548E-004	...........
	1213	1224.12	1.01426E+000	1.01463E+000	7.10864E-004	...........
	1214	1225.13	1.01418E+000	1.01433E+000	7.07339E-004	...........
	1215	1226.13	1.01415E+000	1.01341E+000	7.09156E-004	...........
	1216	1227.14	1.01413E+000	1.01411E+000	7.09631E-004	...........
	1217	1228.15	1.01407E+000	1.01452E+000	7.00306E-004	...........
	1218	1229.16	1.01406E+000	1.01533E+000	7.07956E-004	...........
	1219	1230.17	1.01425E+000	1.01649E+000	7.15781E-004	...........
	1220	1231.18	1.01469E+000	1.01587E+000	7.09748E-004	...........
	1221	1232.18	1.01523E+000	1.01525E+000	7.11614E-004	...........
	1222	1233.19	1.01559E+000	1.01438E+000	7.04039E-004	...........
	1223	1234.2	1.01562E+000	1.01649E+000	7.10306E-004	...........
	1224	1235.21	1.01550E+000	1.01623E+000	7.09631E-004	...........
	1225	1236.22	1.01549E+000	1.01352E+000	7.11598E-004	...........
	1226	1237.22	1.01548E+000	1.01505E+000	7.08864E-004	...........
	1227	1238.23	1.01529E+000	1.01512E+000	7.04448E-004	...........
	1228	1239.24	1.01501E+000	1.01380E+000	6.96489E-004	...........
	1229	1240.25	1.01476E+000	1.01329E+000	7.08723E-004	...........
	1230	1241.26	1.01443E+000	1.01210E+000	7.06948E-004	...........
	1231	1242.27	1.01393E+000	1.01315E+000	7.07398E-004	...........
	1232	1243.28	1.01341E+000	1.01416E+000	7.04348E-004	...........
	1233	1244.28	1.01316E+000	1.01442E+000	7.06039E-004	...........
	1234	1245.29	1.01336E+000	1.01644E+000	7.02956E-004	...........
	1235	1246.3	1.01397E+000	1.01702E+000	7.03523E-004	...........
	1236	1247.31	1.01483E+000	1.01595E+000	7.04856E-004	...........
	1237	1248.32	1.01562E+000	1.01507E+000	7.00139E-004	...........
	1238	1249.32	1.01602E+000	1.01606E+000	7.09448E-004	...........
	1239	1250.33	1.01603E+000	1.01600E+000	7.10756E-004	...........
	1240	1251.34	1.01588E+000	1.01452E+000	7.05514E-004	...........
	1241	1252.35	1.01572E+000	1.01557E+000	7.15589E-004	...........
	1242	1253.36	1.01549E+000	1.01286E+000	7.14356E-004	...........
	1243	1254.37	1.01514E+000	1.01537E+000	7.14164E-004	...........
	1244	1255.38	1.01478E+000	1.01578E+000	7.12631E-004	...........
	1245	1256.38	1.01471E+000	1.01698E+000	7.11298E-004	...........
	1246	1257.39	1.01499E+000	1.01261E+000	7.09931E-004	...........
	1247	1258.4	1.01523E+000	1.01393E+000	7.09339E-004	...........
	1248	1259.41	1.01504E+000	1.01488E+000	7.09689E-004	...........
	1249	1260.42	1.01459E+000	1.01317E+000	7.06689E-004	...........
	1250	1261.43	1.01422E+000	1.01365E+000	7.05523E-004	...........
	1251	1262.43	1.01394E+000	1.01199E+000	7.13456E-004	...........
	1252	1263.44	1.01358E+000	1.01156E+000	7.14439E-004	...........
	1253	1264.45	1.01305E+000	1.01116E+000	7.11773E-004	...........
	1254	1265.46	1.01245E+000	1.01268E+000	7.13189E-004	...........
	1255	1266.47	1.01205E+000	1.01436E+000	7.10039E-004	...........
	1256	1267.47	1.01212E+000	1.01291E+000	7.11189E-004	...........
	1257	1268.48	1.01261E+000	1.01519E+000	7.07781E-004	...........
	1258	1269.49	1.01322E+000	1.01391E+000	7.08573E-004	...........
	1259	1270.5	1.01374E+000	1.01371E+000	7.10464E-004	...........
	1260	1271.51	1.01408E+000	1.01677E+000	7.13997E-004	...........
	1261	1272.52	1.01436E+000	1.01431E+000	7.10273E-004	...........
	1262	1273.53	1.01472E+000	1.01705E+000	7.16097E-004	...........
	1263	1274.53	1.01514E+000	1.01491E+000	7.16781E-004	...........
	1264	1275.54	1.01544E+000	1.01373E+000	7.13406E-004	...........
	1265	1276.55	1.01543E+000	1.01483E+000	7.12773E-004	...........
	1266	1277.56	1.01510E+000	1.01365E+000	7.09573E-004	...........
	1267	1278.57	1.01469E+000	1.01481E+000	7.13672E-004	...........
	1268	1279.57	1.01439E+000	1.01337E+000	7.08389E-004	...........
	1269	1280.58	1.01419E+000	1.01252E+000	7.10981E-004	...........
	1270	1281.59	1.01396E+000	1.01521E+000	7.07523E-004	...........
	1271	1282.6	1.01376E+000	1.01330E+000	7.11123E-004	...........
	1272	1283.61	1.01370E+000	1.01263E+000	7.11431E-004	...........
	1273	1284.62	1.01363E+000	1.01219E+000	7.06314E-004	...........
	1274	1285.63	1.01336E+000	1.01235E+000	7.10731E-004	...........
	1275	1286.63	1.01296E+000	1.01317E+000	7.10956E-004	...........
	1276	1287.64	1.01266E+000	1.01202E+000	7.11948E-004	...........
	1277	1288.65	1.01254E+000	1.01240E+000	7.14922E-004	...........
	1278	1289.66	1.01254E+000	1.01510E+000	7.15072E-004	...........
	1279	1290.67	1.01269E+000	1.01185E+000	7.15797E-004	...........
	1280	1291.68	1.01293E+000	1.01221E+000	7.16022E-004	...........
	1281	1292.68	1.01302E+000	1.01382E+000	7.15464E-004	...........
	1282	1293.69	1.01293E+000	1.01215E+000	7.17939E-004	...........
	1283	1294.7	1.01284E+000	1.01241E+000	7.15581E-004	...........
	1284	1295.71	1.01276E+000	1.01311E+000	7.14322E-004	...........
	1285	1296.72	1.01268E+000	1.01203E+000	7.16189E-004	...........
	1286	1297.72	1.01264E+000	1.01349E+000	7.13723E-004	...........
	1287	1298.73	1.01272E+000	1.01610E+000	7.18839E-004	...........
	1288	1299.74	1.01309E+000	1.01395E+000	7.16047E-004	...........
	1289	1300.75	1.01369E+000	1.01376E+000	7.14681E-004	...........
	1290	1301.76	1.01414E+000	1.01306E+000	7.17539E-004	...........
	1291	1302.77	1.01421E+000	1.01573E+000	7.18647E-004	...........
	1292	1303.78	1.01408E+000	1.01181E+000	7.16922E-004	...........
	1293	1304.78	1.01391E+000	1.01192E+000	7.18006E-004	...........
	1294	1305.79	1.01359E+000	1.01452E+000	7.19531E-004	...........
	1295	1306.8	1.01326E+000	1.01475E+000	7.15697E-004	...........
	1296	1307.81	1.01330E+000	1.01489E+000	7.13131E-004	...........
	1297	1308.82	1.01369E+000	1.01165E+000	7.09089E-004	...........
	1298	1309.82	1.01392E+000	1.01229E+000	7.17881E-004	...........
	1299	1310.83	1.01365E+000	1.01201E+000	7.09781E-004	...........
	1300	1311.84	1.01305E+000	1.01271E+000	7.07189E-004	...........
	1301	1312.85	1.01258E+000	1.01337E+000	7.05589E-004	...........
	1302	1313.86	1.01248E+000	1.01366E+000	7.04273E-004	...........
	1303	1314.87	1.01264E+000	1.01018E+000	7.12148E-004	...........
	1304	1315.88	1.01269E+000	1.01136E+000	7.12906E-004	...........
	1305	1316.88	1.01235E+000	1.01079E+000	7.08673E-004	...........
	1306	1317.89	1.01180E+000	1.01236E+000	7.21514E-004	...........
	1307	1318.9	1.01145E+000	1.01210E+000	7.14781E-004	...........
	1308	1319.91	1.01144E+000	1.01057E+000	7.16997E-004	...........
	1309	1320.92	1.01157E+000	1.01305E+000	7.09614E-004	...........
	1310	1321.93	1.01173E+000	1.01384E+000	7.12073E-004	...........
	1311	1322.93	1.01202E+000	1.01201E+000	7.17514E-004	...........
	1312	1323.94	1.01242E+000	1.01295E+000	7.16106E-004	...........
	1313	1324.95	1.01275E+000	1.01540E+000	7.18339E-004	...........
	1314	1325.96	1.01300E+000	1.01003E+000	7.22856E-004	...........
	1315	1326.97	1.01309E+000	1.01216E+000	7.16173E-004	...........
	1316	1327.97	1.01281E+000	1.01063E+000	7.17822E-004	...........
	1317	1328.98	1.01222E+000	1.01086E+000	7.12148E-004	...........
	1318	1329.99	1.01161E+000	1.01054E+000	7.17414E-004	...........
	1319	1331	1.01118E+000	1.01294E+000	7.15947E-004	...........
	1320	1332.01	1.01110E+000	1.01233E+000	7.15556E-004	...........
	1321	1333.02	1.01140E+000	1.01252E+000	7.23981E-004	...........
	1322	1334.03	1.01186E+000	1.01197E+000	7.23789E-004	...........
	1323	1335.03	1.01217E+000	1.01170E+000	7.22164E-004	...........
	1324	1336.04	1.01226E+000	1.01345E+000	7.15197E-004	...........
	1325	1337.05	1.01225E+000	1.01078E+000	7.18372E-004	...........
	1326	1338.06	1.01222E+000	1.01285E+000	7.13964E-004	...........
	1327	1339.07	1.01217E+000	1.01149E+000	7.14372E-004	...........
	1328	1340.07	1.01207E+000	1.01128E+000	7.19106E-004	...........
	1329	1341.08	1.01194E+000	1.01218E+000	7.16739E-004	...........
	1330	1342.09	1.01187E+000	1.01467E+000	7.28264E-004	...........
	1331	1343.1	1.01208E+000	1.01368E+000	7.19372E-004	...........
	1332	1344.11	1.01264E+000	1.01392E+000	7.19647E-004	...........
	1333	1345.12	1.01327E+000	1.01376E+000	7.22147E-004	...........
	1334	1346.13	1.01365E+000	1.01193E+000	7.22589E-004	...........
	1335	1347.13	1.01358E+000	1.01000E+000	7.22381E-004	...........
	1336	1348.14	1.01301E+000	1.01106E+000	7.26889E-004	...........
	1337	1349.15	1.01217E+000	1.01221E+000	7.19806E-004	...........
	1338	1350.16	1.01154E+000	1.01172E+000	7.23389E-004	...........
	1339	1351.17	1.01140E+000	1.01346E+000	7.18531E-004	...........
	1340	1352.18	1.01168E+000	1.01237E+000	7.20531E-004	...........
	1341	1353.18	1.01211E+000	1.01208E+000	7.19339E-004	...........
	1342	1354.19	1.01242E+000	1.01312E+000	7.18539E-004	...........
	1343	1355.2	1.01253E+000	1.01171E+000	7.21306E-004	...........
	1344	1356.21	1.01250E+000	1.01181E+000	7.20214E-004	...........
	1345	1357.22	1.01236E+000	1.01161E+000	7.20156E-004	...........
	1346	1358.22	1.01213E+000	1.01207E+000	7.22147E-004	...........
	1347	1359.23	1.01191E+000	1.01065E+000	7.16872E-004	...........
	1348	1360.24	1.01175E+000	1.01287E+000	7.16464E-004	...........
	1349	1361.25	1.01169E+000	1.01253E+000	7.17331E-004	...........
	1350	1362.26	1.01184E+000	1.01340E+000	7.16506E-004	...........
	1351	1363.27	1.01217E+000	1.01123E+000	7.24147E-004	...........
	1352	1364.28	1.01238E+000	1.01066E+000	7.14556E-004	...........
	1353	1365.28	1.01222E+000	1.01029E+000	7.17306E-004	...........
	1354	1366.29	1.01173E+000	1.01177E+000	7.19714E-004	...........
	1355	1367.3	1.01124E+000	1.01067E+000	7.17456E-004	...........
	1356	1368.31	1.01098E+000	1.01031E+000	7.21422E-004	...........
	1357	1369.32	1.01088E+000	1.01101E+000	7.24014E-004	...........
	1358	1370.32	1.01086E+000	1.01385E+000	7.17356E-004	...........
	1359	1371.33	1.01113E+000	1.01426E+000	7.19931E-004	...........
	1360	1372.34	1.01179E+000	1.01136E+000	7.22331E-004	...........
	1361	1373.35	1.01254E+000	1.01515E+000	7.18922E-004	...........
	1362	1374.36	1.01301E+000	1.01127E+000	7.16047E-004	...........
	1363	1375.37	1.01317E+000	1.01368E+000	7.19897E-004	...........
	1364	1376.38	1.01312E+000	1.01284E+000	7.23047E-004	...........
	1365	1377.38	1.01301E+000	1.01226E+000	7.21631E-004	...........
	1366	1378.39	1.01290E+000	1.01290E+000	7.19147E-004	...........
	1367	1379.4	1.01282E+000	1.01371E+000	7.19322E-004	...........
	1368	1380.41	1.01281E+000	1.01209E+000	7.21264E-004	...........
	1369	1381.42	1.01286E+000	1.01275E+000	7.20714E-004	...........
	1370	1382.43	1.01286E+000	1.01322E+000	7.18389E-004	...........
	1371	1383.43	1.01279E+000	1.01088E+000	7.23497E-004	...........
	1372	1384.44	1.01261E+000	1.01134E+000	7.19822E-004	...........
	1373	1385.45	1.01231E+000	1.01337E+000	7.12373E-004	...........
	1374	1386.46	1.01207E+000	1.01309E+000	7.16122E-004	...........
	1375	1387.47	1.01215E+000	1.01214E+000	7.11006E-004	...........
	1376	1388.47	1.01237E+000	1.01068E+000	7.13414E-004	...........
	1377	1389.48	1.01241E+000	1.01371E+000	7.12264E-004	...........
	1378	1390.49	1.01228E+000	1.01191E+000	7.20989E-004	...........
	1379	1391.5	1.01219E+000	1.01041E+000	7.18581E-004	...........
	1380	1392.51	1.01202E+000	1.00902E+000	7.14981E-004	...........
	1381	1393.52	1.01154E+000	1.01108E+000	7.15006E-004	...........
	1382	1394.53	1.01089E+000	1.00989E+000	7.15572E-004	...........
	1383	1395.53	1.01040E+000	1.00953E+000	7.13581E-004	...........
	1384	1396.54	1.01016E+000	1.01070E+000	7.12073E-004	...........
	1385	1397.55	1.01007E+000	1.01036E+000	7.18131E-004	...........
	1386	1398.56	1.01012E+000	1.01126E+000	7.18572E-004	...........
	1387	1399.57	1.01034E+000	1.01192E+000	7.16422E-004	...........
	1388	1400.57	1.01070E+000	1.01160E+000	7.12539E-004	...........
	1389	1401.58	1.01113E+000	1.01294E+000	7.16331E-004	...........
	1390	1402.59	1.01153E+000	1.00993E+000	7.18856E-004	...........
	1391	1403.6	1.01170E+000	1.01044E+000	7.19281E-004	...........
	1392	1404.61	1.01148E+000	1.00928E+000	7.18872E-004	...........
	1393	1405.62	1.01093E+000	1.00923E+000	7.20006E-004	...........
	1394	1406.63	1.01031E+000	1.01060E+000	7.23772E-004	...........
	1395	1407.63	1.00992E+000	1.01113E+000	7.24331E-004	...........
	1396	1408.64	1.00993E+000	1.01088E+000	7.24731E-004	...........
	1397	1409.65	1.01027E+000	1.01175E+000	7.23172E-004	...........
	1398	1410.66	1.01067E+000	1.00982E+000	7.19839E-004	...........
	1399	1411.67	1.01091E+000	1.01085E+000	7.19131E-004	...........
	1400	1412.68	1.01088E+000	1.00945E+000	7.22081E-004	...........
	1401	1413.68	1.01065E+000	1.01019E+000	7.14898E-004	...........
	1402	1414.69	1.01039E+000	1.01187E+000	7.15989E-004	...........
	1403	1415.7	1.01031E+000	1.00922E+000	7.14131E-004	...........
	1404	1416.71	1.01036E+000	1.00989E+000	7.13248E-004	...........
	1405	1417.72	1.01031E+000	1.00880E+000	7.15347E-004	...........
	1406	1418.72	1.01004E+000	1.00948E+000	7.12972E-004	...........
	1407	1419.73	1.00972E+000	1.01059E+000	7.15914E-004	...........
	1408	1420.74	1.00957E+000	1.00969E+000	7.17956E-004	...........
	1409	1421.75	1.00965E+000	1.00988E+000	7.13772E-004	...........
	1410	1422.76	1.00979E+000	1.00913E+000	7.11381E-004	...........
	1411	1423.77	1.00979E+000	1.00879E+000	7.14422E-004	...........
	1412	1424.78	1.00959E+000	1.00788E+000	7.18522E-004	...........
	1413	1425.78	1.00921E+000	1.00799E+000	7.16173E-004	...........
	1414	1426.79	1.00877E+000	1.00898E+000	7.15997E-004	...........
	1415	1427.8	1.00845E+000	1.00823E+000	7.20197E-004	...........
	1416	1428.81	1.00836E+000	1.00868E+000	7.15831E-004	...........
	1417	1429.82	1.00843E+000	1.00988E+000	7.19106E-004	...........
	1418	1430.82	1.00865E+000	1.01046E+000	7.18522E-004	...........
	1419	1431.83	1.00904E+000	1.00969E+000	7.16547E-004	...........
	1420	1432.84	1.00951E+000	1.01113E+000	7.06923E-004	...........
	1421	1433.85	1.00991E+000	1.00909E+000	7.14064E-004	...........
	1422	1434.86	1.01010E+000	1.00947E+000	7.18664E-004	...........
	1423	1435.87	1.01004E+000	1.00906E+000	7.20939E-004	...........
	1424	1436.88	1.00979E+000	1.00999E+000	7.21339E-004	...........
	1425	1437.88	1.00956E+000	1.00905E+000	7.16631E-004	...........
	1426	1438.89	1.00945E+000	1.00950E+000	7.19906E-004	...........
	1427	1439.9	1.00947E+000	1.01213E+000	7.23781E-004	...........
	1428	1440.91	1.00973E+000	1.01237E+000	7.20072E-004	...........
	1429	1441.92	1.01030E+000	1.00989E+000	7.23006E-004	...........
	1430	1442.93	1.01088E+000	1.01065E+000	7.20422E-004	...........
	1431	1443.93	1.01106E+000	1.00932E+000	7.20322E-004	...........
	1432	1444.94	1.01080E+000	1.00919E+000	7.19139E-004	...........
	1433	1445.95	1.01028E+000	1.00856E+000	7.20331E-004	...........
	1434	1446.96	1.00975E+000	1.01026E+000	7.14364E-004	...........
	1435	1447.97	1.00941E+000	1.00994E+000	7.18972E-004	...........
	1436	1448.97	1.00944E+000	1.01238E+000	7.22539E-004	...........
	1437	1449.98	1.00991E+000	1.01395E+000	7.20006E-004	...........
	1438	1450.99	1.01078E+000	1.01265E+000	7.18147E-004	...........
	1439	1452	1.01178E+000	1.01174E+000	7.19739E-004	...........
	1440	1453.01	1.01233E+000	1.00687E+000	7.22947E-004	...........
	1441	1454.02	1.01195E+000	1.00757E+000	7.25689E-004	...........
	1442	1455.03	1.01071E+000	1.00865E+000	7.22822E-004	...........
	1443	1456.03	1.00931E+000	1.00718E+000	7.21672E-004	...........
	1444	1457.04	1.00837E+000	1.00897E+000	7.19472E-004	...........
	1445	1458.05	1.00796E+000	1.00626E+000	7.20564E-004	...........
	1446	1459.06	1.00777E+000	1.00532E+000	7.25097E-004	...........
	1447	1460.07	1.00743E+000	1.00796E+000	7.27972E-004	...........
	1448	1461.07	1.00703E+000	1.00737E+000	7.25381E-004	...........
	1449	1462.08	1.00688E+000	1.00780E+000	7.31406E-004	...........
	1450	1463.09	1.00704E+000	1.00718E+000	7.22889E-004	...........
	1451	1464.1	1.00729E+000	1.00767E+000	7.28522E-004	...........
	1452	1465.11	1.00746E+000	1.00831E+000	7.28847E-004	...........
	1453	1466.12	1.00759E+000	1.00759E+000	7.25764E-004	...........
	1454	1467.13	1.00770E+000	1.00707E+000	7.24631E-004	...........
	1455	1468.13	1.00774E+000	1.00819E+000	7.29489E-004	...........
	1456	1469.14	1.00774E+000	1.00968E+000	7.27256E-004	...........
	1457	1470.15	1.00789E+000	1.00818E+000	7.27281E-004	...........
	1458	1471.16	1.00822E+000	1.00916E+000	7.21772E-004	...........
	1459	1472.17	1.00859E+000	1.01069E+000	7.25614E-004	...........
	1460	1473.18	1.00893E+000	1.00815E+000	7.26839E-004	...........
	1461	1474.18	1.00919E+000	1.00864E+000	7.29814E-004	...........
	1462	1475.19	1.00923E+000	1.00912E+000	7.29514E-004	...........
	1463	1476.2	1.00908E+000	1.00894E+000	7.28047E-004	...........
	1464	1477.21	1.00896E+000	1.00962E+000	7.31072E-004	...........
	1465	1478.22	1.00900E+000	1.01026E+000	7.24847E-004	...........
	1466	1479.22	1.00921E+000	1.00962E+000	7.26056E-004	...........
	1467	1480.23	1.00946E+000	1.00800E+000	7.23914E-004	...........
	1468	1481.24	1.00953E+000	1.00965E+000	7.24997E-004	...........
	1469	1482.25	1.00941E+000	1.01110E+000	7.22214E-004	...........
	1470	1483.26	1.00941E+000	1.00986E+000	7.22631E-004	...........
	1471	1484.27	1.00965E+000	1.00958E+000	7.30056E-004	...........
	1472	1485.28	1.00987E+000	1.00836E+000	7.23631E-004	...........
	1473	1486.28	1.00981E+000	1.00929E+000	7.25764E-004	...........
	1474	1487.29	1.00951E+000	1.00910E+000	7.24881E-004	...........
	1475	1488.3	1.00919E+000	1.00700E+000	7.23681E-004	...........
	1476	1489.31	1.00887E+000	1.00851E+000	7.27139E-004	...........
	1477	1490.32	1.00857E+000	1.01005E+000	7.20681E-004	...........
	1478	1491.32	1.00848E+000	1.01001E+000	7.30214E-004	...........
	1479	1492.33	1.00878E+000	1.01023E+000	7.27214E-004	...........
	1480	1493.34	1.00932E+000	1.01091E+000	7.27131E-004	...........
	1481	1494.35	1.00983E+000	1.00885E+000	7.24872E-004	...........
	1482	1495.36	1.01003E+000	1.00698E+000	7.21872E-004	...........
	1483	1496.37	1.00973E+000	1.00796E+000	7.27122E-004	...........
	1484	1497.38	1.00903E+000	1.00809E+000	7.30131E-004	...........
	1485	1498.38	1.00836E+000	1.00781E+000	7.30222E-004	...........
	1486	1499.39	1.00797E+000	1.00720E+000	7.32006E-004	...........
	1487	1500.4	1.00780E+000	1.00829E+000	7.29747E-004	...........
	1488	1501.41	1.00775E+000	1.00813E+000	7.37797E-004	...........
	1489	1502.42	1.00776E+000	1.00620E+000	7.34189E-004	...........
	1490	1503.43	1.00770E+000	1.00670E+000	7.33047E-004	...........
	1491	1504.43	1.00747E+000	1.00778E+000	7.28939E-004	...........
	1492	1505.44	1.00723E+000	1.00847E+000	7.27189E-004	...........
	1493	1506.45	1.00728E+000	1.00910E+000	7.26081E-004	...........
	1494	1507.46	1.00765E+000	1.00777E+000	7.26047E-004	...........
	1495	1508.47	1.00808E+000	1.00883E+000	7.27714E-004	...........
	1496	1509.47	1.00834E+000	1.00748E+000	7.26206E-004	...........
	1497	1510.48	1.00834E+000	1.00704E+000	7.29697E-004	...........
	1498	1511.49	1.00813E+000	1.00783E+000	7.29697E-004	...........
	1499	1512.5	1.00787E+000	1.00930E+000	7.24972E-004	...........
	1500	1513.51	1.00783E+000	1.00918E+000	7.29364E-004	...........
	1501	1514.52	1.00812E+000	1.00838E+000	7.26281E-004	...........
	1502	1515.53	1.00846E+000	1.00660E+000	7.28856E-004	...........
	1503	1516.53	1.00849E+000	1.00799E+000	7.24531E-004	...........
	1504	1517.54	1.00823E+000	1.00936E+000	7.21939E-004	...........
	1505	1518.55	1.00804E+000	1.00826E+000	7.21097E-004	...........
	1506	1519.56	1.00814E+000	1.00859E+000	7.22322E-004	...........
	1507	1520.57	1.00832E+000	1.00651E+000	7.19322E-004	...........
	1508	1521.57	1.00826E+000	1.00648E+000	7.21864E-004	...........
	1509	1522.58	1.00791E+000	1.00882E+000	7.22097E-004	...........
	1510	1523.59	1.00753E+000	1.00672E+000	7.21039E-004	...........
	1511	1524.6	1.00740E+000	1.00811E+000	7.28497E-004	...........
	1512	1525.61	1.00745E+000	1.00761E+000	7.22497E-004	...........
	1513	1526.62	1.00757E+000	1.00853E+000	7.29464E-004	...........
	1514	1527.63	1.00774E+000	1.00833E+000	7.28072E-004	...........
	1515	1528.63	1.00796E+000	1.00924E+000	7.31397E-004	...........
	1516	1529.64	1.00824E+000	1.00840E+000	7.29197E-004	...........
	1517	1530.65	1.00847E+000	1.00752E+000	7.19814E-004	...........
	1518	1531.66	1.00853E+000	1.00901E+000	7.21914E-004	...........
	1519	1532.67	1.00840E+000	1.00527E+000	7.28472E-004	...........
	1520	1533.68	1.00808E+000	1.00797E+000	7.17281E-004	...........
	1521	1534.68	1.00768E+000	1.00812E+000	7.25839E-004	...........
	1522	1535.69	1.00743E+000	1.00784E+000	7.17972E-004	...........
	1523	1536.7	1.00749E+000	1.00798E+000	7.23947E-004	...........
	1524	1537.71	1.00771E+000	1.00885E+000	7.18964E-004	...........
	1525	1538.72	1.00793E+000	1.00728E+000	7.24564E-004	...........
	1526	1539.72	1.00806E+000	1.00757E+000	7.24156E-004	...........
	1527	1540.73	1.00804E+000	1.00850E+000	7.20056E-004	...........
	1528	1541.74	1.00795E+000	1.00796E+000	7.26781E-004	...........
	1529	1542.75	1.00796E+000	1.00937E+000	7.24922E-004	...........
	1530	1543.76	1.00811E+000	1.00741E+000	7.30231E-004	...........
	1531	1544.77	1.00827E+000	1.00816E+000	7.32647E-004	...........
	1532	1545.78	1.00831E+000	1.00899E+000	7.27772E-004	...........
	1533	1546.78	1.00829E+000	1.00813E+000	7.35872E-004	...........
	1534	1547.79	1.00835E+000	1.00963E+000	7.29822E-004	...........
	1535	1548.8	1.00850E+000	1.00852E+000	7.27664E-004	...........
	1536	1549.81	1.00871E+000	1.00996E+000	7.29022E-004	...........
	1537	1550.82	1.00891E+000	1.00790E+000	7.25147E-004	...........
	1538	1551.82	1.00902E+000	1.00942E+000	7.25856E-004	...........
	1539	1552.83	1.00901E+000	1.00905E+000	7.24797E-004	...........
	1540	1553.84	1.00889E+000	1.00419E+000	7.31439E-004	...........
	1541	1554.85	1.00845E+000	1.00605E+000	7.23472E-004	...........
	1542	1555.86	1.00763E+000	1.00736E+000	7.25264E-004	...........
	1543	1556.87	1.00685E+000	1.00769E+000	7.22297E-004	...........
	1544	1557.88	1.00661E+000	1.00833E+000	7.20164E-004	...........
	1545	1558.88	1.00696E+000	1.00953E+000	7.25147E-004	...........
	1546	1559.89	1.00760E+000	1.00882E+000	7.28431E-004	...........
	1547	1560.9	1.00829E+000	1.01035E+000	7.26347E-004	...........
	1548	1561.91	1.00887E+000	1.00910E+000	7.26347E-004	...........
	1549	1562.92	1.00929E+000	1.01046E+000	7.24106E-004	...........
	1550	1563.92	1.00954E+000	1.00789E+000	7.30756E-004	...........
	1551	1564.93	1.00950E+000	1.00587E+000	7.28106E-004	...........
	1552	1565.94	1.00903E+000	1.00780E+000	7.26231E-004	...........
	1553	1566.95	1.00825E+000	1.00734E+000	7.25964E-004	...........
	1554	1567.96	1.00765E+000	1.00934E+000	7.30789E-004	...........
	1555	1568.97	1.00755E+000	1.00854E+000	7.26922E-004	...........
	1556	1569.97	1.00786E+000	1.00833E+000	7.29839E-004	...........
	1557	1570.98	1.00826E+000	1.00922E+000	7.29897E-004	...........
	1558	1571.99	1.00850E+000	1.00694E+000	7.32814E-004	...........
	1559	1573	1.00855E+000	1.01011E+000	7.28247E-004	...........
	1560	1574.01	1.00850E+000	1.00711E+000	7.28022E-004	...........
	1561	1575.02	1.00845E+000	1.00880E+000	7.23589E-004	...........
	1562	1576.03	1.00835E+000	1.00563E+000	7.23106E-004	...........
	1563	1577.03	1.00807E+000	1.00737E+000	7.27514E-004	...........
	1564	1578.04	1.00762E+000	1.00674E+000	7.30181E-004	...........
	1565	1579.05	1.00719E+000	1.00624E+000	7.26489E-004	...........
	1566	1580.06	1.00689E+000	1.00661E+000	7.33431E-004	...........
	1567	1581.07	1.00670E+000	1.00700E+000	7.26589E-004	...........
	1568	1582.07	1.00661E+000	1.00629E+000	7.26989E-004	...........
	1569	1583.08	1.00661E+000	1.00673E+000	7.23722E-004	...........
	1570	1584.09	1.00662E+000	1.00691E+000	7.22464E-004	...........
	1571	1585.1	1.00665E+000	1.00711E+000	7.20414E-004	...........
	1572	1586.11	1.00676E+000	1.00830E+000	7.22964E-004	...........
	1573	1587.12	1.00696E+000	1.00547E+000	7.29872E-004	...........
	1574	1588.13	1.00707E+000	1.00599E+000	7.27364E-004	...........
	1575	1589.13	1.00695E+000	1.00816E+000	7.35339E-004	...........
	1576	1590.14	1.00675E+000	1.00578E+000	7.27197E-004	...........
	1577	1591.15	1.00666E+000	1.00593E+000	7.23514E-004	...........
	1578	1592.16	1.00658E+000	1.00595E+000	7.22622E-004	...........
	1579	1593.17	1.00640E+000	1.00721E+000	7.26231E-004	...........
	1580	1594.17	1.00627E+000	1.00519E+000	7.28372E-004	...........
	1581	1595.18	1.00624E+000	1.00760E+000	7.21989E-004	...........
	1582	1596.19	1.00627E+000	1.00458E+000	7.26022E-004	...........
	1583	1597.2	1.00622E+000	1.00524E+000	7.29581E-004	...........
	1584	1598.21	1.00600E+000	1.00520E+000	7.28597E-004	...........
	1585	1599.22	1.00568E+000	1.00670E+000	7.23872E-004	...........
	1586	1600.22	1.00555E+000	1.00694E+000	7.23272E-004	...........
	1587	1601.23	1.00578E+000	1.00792E+000	7.29547E-004	...........
	1588	1602.24	1.00627E+000	1.00586E+000	7.22356E-004	...........
	1589	1603.25	1.00669E+000	1.00614E+000	7.23456E-004	...........
	1590	1604.26	1.00679E+000	1.00696E+000	7.31664E-004	...........
	1591	1605.27	1.00665E+000	1.00533E+000	7.33831E-004	...........
	1592	1606.28	1.00642E+000	1.00507E+000	7.30147E-004	...........
	1593	1607.28	1.00614E+000	1.00638E+000	7.28772E-004	...........
	1594	1608.29	1.00589E+000	1.00697E+000	7.29672E-004	...........
	1595	1609.3	1.00590E+000	1.00723E+000	7.26689E-004	...........
	1596	1610.31	1.00622E+000	1.00778E+000	7.28931E-004	...........
	1597	1611.32	1.00671E+000	1.00843E+000	7.25464E-004	...........
	1598	1612.32	1.00723E+000	1.00806E+000	7.33131E-004	...........
	1599	1613.33	1.00767E+000	1.00742E+000	7.28447E-004	...........
	1600	1614.34	1.00790E+000	1.00738E+000	7.30747E-004	...........
	1601	1615.35	1.00790E+000	1.00899E+000	7.35572E-004	...........
	1602	1616.36	1.00781E+000	1.00466E+000	7.33247E-004	...........
	1603	1617.37	1.00756E+000	1.00497E+000	7.26114E-004	...........
	1604	1618.38	1.00700E+000	1.00569E+000	7.31364E-004	...........
	1605	1619.38	1.00626E+000	1.00619E+000	7.28789E-004	...........
	1606	1620.39	1.00577E+000	1.00582E+000	7.32431E-004	...........
	1607	1621.4	1.00568E+000	1.00668E+000	7.38247E-004	...........
	1608	1622.41	1.00581E+000	1.00501E+000	7.35722E-004	...........
	1609	1623.42	1.00592E+000	1.00558E+000	7.28731E-004	...........
	1610	1624.42	1.00590E+000	1.00718E+000	7.36514E-004	...........
	1611	1625.43	1.00592E+000	1.00749E+000	7.33622E-004	...........
	1612	1626.44	1.00616E+000	1.00635E+000	7.31156E-004	...........
	1613	1627.45	1.00655E+000	1.00806E+000	7.31281E-004	...........
	1614	1628.46	1.00692E+000	1.00870E+000	7.23581E-004	...........
	1615	1629.47	1.00732E+000	1.00877E+000	7.35147E-004	...........
	1616	1630.47	1.00779E+000	1.00795E+000	7.29472E-004	...........
	1617	1631.48	1.00815E+000	1.00694E+000	7.27181E-004	...........
	1618	1632.49	1.00817E+000	1.00622E+000	7.36639E-004	...........
	1619	1633.5	1.00782E+000	1.00685E+000	7.32806E-004	...........
	1620	1634.51	1.00729E+000	1.00590E+000	7.25922E-004	...........
	1621	1635.52	1.00691E+000	1.01136E+000	7.28497E-004	...........
	1622	1636.53	1.00698E+000	1.00572E+000	7.29581E-004	...........
	1623	1637.53	1.00734E+000	1.00450E+000	7.29689E-004	...........
	1624	1638.54	1.00732E+000	1.00473E+000	7.32914E-004	...........
	1625	1639.55	1.00664E+000	1.00439E+000	7.28572E-004	...........
	1626	1640.56	1.00570E+000	1.00469E+000	7.28672E-004	...........
	1627	1641.57	1.00499E+000	1.00455E+000	7.28572E-004	...........
	1628	1642.57	1.00465E+000	1.00470E+000	7.30256E-004	...........
	1629	1643.58	1.00455E+000	1.00459E+000	7.29922E-004	...........
	1630	1644.59	1.00459E+000	1.00578E+000	7.25731E-004	...........
	1631	1645.6	1.00473E+000	1.00518E+000	7.30847E-004	...........
	1632	1646.61	1.00491E+000	1.00378E+000	7.36889E-004	...........
	1633	1647.62	1.00499E+000	1.00473E+000	7.29314E-004	...........
	1634	1648.62	1.00491E+000	1.00739E+000	7.26847E-004	...........
	1635	1649.63	1.00492E+000	1.00320E+000	7.25747E-004	...........
	1636	1650.64	1.00505E+000	1.00464E+000	7.25722E-004	...........
	1637	1651.65	1.00504E+000	1.00520E+000	7.22147E-004	...........
	1638	1652.66	1.00490E+000	1.00573E+000	7.18731E-004	...........
	1639	1653.67	1.00487E+000	1.00442E+000	7.26781E-004	...........
	1640	1654.67	1.00492E+000	1.00271E+000	7.31664E-004	...........
	1641	1655.68	1.00476E+000	1.00310E+000	7.35147E-004	...........
	1642	1656.69	1.00428E+000	1.00378E+000	7.31222E-004	...........
	1643	1657.7	1.00378E+000	1.00452E+000	7.29031E-004	...........
	1644	1658.71	1.00361E+000	1.00508E+000	7.26089E-004	...........
	1645	1659.72	1.00382E+000	1.00394E+000	7.30189E-004	...........
	1646	1660.72	1.00416E+000	1.00446E+000	7.26906E-004	...........
	1647	1661.73	1.00434E+000	1.00309E+000	7.28281E-004	...........
	1648	1662.74	1.00424E+000	1.00185E+000	7.26514E-004	...........
	1649	1663.75	1.00385E+000	1.00312E+000	7.34506E-004	...........
	1650	1664.76	1.00333E+000	1.00362E+000	7.38872E-004	...........
	1651	1665.77	1.00303E+000	1.00421E+000	7.37255E-004	...........
	1652	1666.78	1.00315E+000	1.00571E+000	7.39089E-004	...........
	1653	1667.78	1.00366E+000	1.00696E+000	7.37139E-004	...........
	1654	1668.79	1.00447E+000	1.00578E+000	7.34122E-004	...........
	1655	1669.8	1.00528E+000	1.00530E+000	7.27481E-004	...........
	1656	1670.81	1.00577E+000	1.00563E+000	7.33589E-004	...........
	1657	1671.82	1.00585E+000	1.00481E+000	7.34031E-004	...........
	1658	1672.82	1.00567E+000	1.00511E+000	7.27989E-004	...........
	1659	1673.83	1.00544E+000	1.00661E+000	7.39422E-004	...........
	1660	1674.84	1.00537E+000	1.00543E+000	7.34214E-004	...........
	1661	1675.85	1.00542E+000	1.00230E+000	7.36289E-004	...........
	1662	1676.86	1.00533E+000	1.00685E+000	7.38597E-004	...........
	1663	1677.87	1.00508E+000	1.00568E+000	7.33497E-004	...........
	1664	1678.88	1.00501E+000	1.00512E+000	7.39630E-004	...........
	1665	1679.88	1.00516E+000	1.00358E+000	7.33739E-004	...........
	1666	1680.89	1.00518E+000	1.00501E+000	7.34456E-004	...........
	1667	1681.9	1.00500E+000	1.00628E+000	7.36189E-004	...........
	1668	1682.91	1.00493E+000	1.00644E+000	7.36756E-004	...........
	1669	1683.92	1.00518E+000	1.00538E+000	7.33931E-004	...........
	1670	1684.92	1.00557E+000	1.00587E+000	7.33181E-004	...........
	1671	1685.93	1.00577E+000	1.00359E+000	7.32689E-004	...........
	1672	1686.94	1.00562E+000	1.00479E+000	7.36989E-004	...........
	1673	1687.95	1.00525E+000	1.00580E+000	7.38030E-004	...........
	1674	1688.96	1.00497E+000	1.00551E+000	7.26564E-004	...........
	1675	1689.97	1.00501E+000	1.00645E+000	7.30589E-004	...........
	1676	1690.97	1.00530E+000	1.00566E+000	7.36922E-004	...........
	1677	1691.98	1.00567E+000	1.00780E+000	7.31256E-004	...........
	1678	1692.99	1.00601E+000	1.00507E+000	7.29172E-004	...........
	1679	1694	1.00621E+000	1.00428E+000	7.32889E-004	...........
	1680	1695.01	1.00607E+000	1.00458E+000	7.31081E-004	...........
	1681	1696.02	1.00558E+000	1.00465E+000	7.32172E-004	...........
	1682	1697.03	1.00506E+000	1.00513E+000	7.29664E-004	...........
	1683	1698.03	1.00479E+000	1.00521E+000	7.34255E-004	...........
	1684	1699.04	1.00481E+000	1.00638E+000	7.34106E-004	...........
	1685	1700.05	1.00504E+000	1.00506E+000	7.29397E-004	...........
	1686	1701.06	1.00532E+000	1.00499E+000	7.25247E-004	...........
	1687	1702.07	1.00543E+000	1.00463E+000	7.31806E-004	...........
	1688	1703.07	1.00529E+000	1.00359E+000	7.33064E-004	...........
	1689	1704.08	1.00501E+000	1.00676E+000	7.36497E-004	...........
	1690	1705.09	1.00485E+000	1.00613E+000	7.34181E-004	...........
	1691	1706.1	1.00504E+000	1.00537E+000	7.33855E-004	...........
	1692	1707.11	1.00546E+000	1.00780E+000	7.34181E-004	...........
	1693	1708.12	1.00588E+000	1.00540E+000	7.35381E-004	...........
	1694	1709.13	1.00617E+000	1.00537E+000	7.38989E-004	...........
	1695	1710.13	1.00620E+000	1.00508E+000	7.30547E-004	...........
	1696	1711.14	1.00596E+000	1.00588E+000	7.34555E-004	...........
	1697	1712.15	1.00564E+000	1.00401E+000	7.38231E-004	...........
	1698	1713.16	1.00536E+000	1.00492E+000	7.37022E-004	...........
	1699	1714.17	1.00513E+000	1.00623E+000	7.30281E-004	...........
	1700	1715.17	1.00508E+000	1.00717E+000	7.35614E-004	...........
	1701	1716.18	1.00538E+000	1.00724E+000	7.35489E-004	...........
	1702	1717.19	1.00598E+000	1.00741E+000	7.35422E-004	...........
	1703	1718.2	1.00662E+000	1.00797E+000	7.31156E-004	...........
	1704	1719.21	1.00705E+000	1.00419E+000	7.31064E-004	...........
	1705	1720.22	1.00706E+000	1.00458E+000	7.32231E-004	...........
	1706	1721.22	1.00654E+000	1.00581E+000	7.34056E-004	...........
	1707	1722.23	1.00586E+000	1.00684E+000	7.33964E-004	...........
	1708	1723.24	1.00558E+000	1.00772E+000	7.27572E-004	...........
	1709	1724.25	1.00587E+000	1.00727E+000	7.30139E-004	...........
	1710	1725.26	1.00643E+000	1.00539E+000	7.34514E-004	...........
	1711	1726.27	1.00679E+000	1.00739E+000	7.34722E-004	...........
	1712	1727.28	1.00681E+000	1.00543E+000	7.36472E-004	...........
	1713	1728.28	1.00663E+000	1.00636E+000	7.36255E-004	...........
	1714	1729.29	1.00642E+000	1.00692E+000	7.34189E-004	...........
	1715	1730.3	1.00628E+000	1.00411E+000	7.32272E-004	...........
	1716	1731.31	1.00613E+000	1.00596E+000	7.33322E-004	...........
	1717	1732.32	1.00589E+000	1.00602E+000	7.30514E-004	...........
	1718	1733.32	1.00571E+000	1.00667E+000	7.38664E-004	...........
	1719	1734.33	1.00574E+000	1.00518E+000	7.37414E-004	...........
	1720	1735.34	1.00586E+000	1.00523E+000	7.34539E-004	...........
	1721	1736.35	1.00583E+000	1.00526E+000	7.36672E-004	...........
	1722	1737.36	1.00565E+000	1.00533E+000	7.30631E-004	...........
	1723	1738.37	1.00544E+000	1.00495E+000	7.37922E-004	...........
	1724	1739.38	1.00532E+000	1.00671E+000	7.39355E-004	...........
	1725	1740.38	1.00538E+000	1.00660E+000	7.34864E-004	...........
	1726	1741.39	1.00562E+000	1.00480E+000	7.35564E-004	...........
	1727	1742.4	1.00588E+000	1.00723E+000	7.36547E-004	...........
	1728	1743.41	1.00602E+000	1.00592E+000	7.32764E-004	...........
	1729	1744.42	1.00608E+000	1.00470E+000	7.36514E-004	...........
	1730	1745.42	1.00603E+000	1.00605E+000	7.38497E-004	...........
	1731	1746.43	1.00586E+000	1.00596E+000	7.39514E-004	...........
	1732	1747.44	1.00577E+000	1.00798E+000	7.41439E-004	...........
	1733	1748.45	1.00594E+000	1.00581E+000	7.36705E-004	...........
	1734	1749.46	1.00629E+000	1.00689E+000	7.37939E-004	...........
	1735	1750.47	1.00650E+000	1.00419E+000	7.33547E-004	...........
	1736	1751.47	1.00638E+000	1.00499E+000	7.37922E-004	...........
	1737	1752.48	1.00591E+000	1.00377E+000	7.38014E-004	...........
	1738	1753.49	1.00529E+000	1.00446E+000	7.46172E-004	...........
	1739	1754.5	1.00473E+000	1.00310E+000	7.46739E-004	...........
	1740	1755.51	1.00433E+000	1.00570E+000	7.36497E-004	...........
	1741	1756.52	1.00414E+000	1.00303E+000	7.31114E-004	...........
	1742	1757.53	1.00413E+000	1.00457E+000	7.38030E-004	...........
	1743	1758.53	1.00417E+000	1.00520E+000	7.40255E-004	...........
	1744	1759.54	1.00427E+000	1.00503E+000	7.38722E-004	...........
	1745	1760.55	1.00452E+000	1.00653E+000	7.44530E-004	...........
	1746	1761.56	1.00491E+000	1.00551E+000	7.43289E-004	...........
	1747	1762.57	1.00535E+000	1.00664E+000	7.39014E-004	...........
	1748	1763.57	1.00569E+000	1.00428E+000	7.38547E-004	...........
	1749	1764.58	1.00580E+000	1.00521E+000	7.39480E-004	...........
	1750	1765.59	1.00562E+000	1.00422E+000	7.43430E-004	...........
	1751	1766.6	1.00529E+000	1.00593E+000	7.45680E-004	...........
	1752	1767.61	1.00511E+000	1.00798E+000	7.46614E-004	...........
	1753	1768.62	1.00526E+000	1.00233E+000	7.46964E-004	...........
	1754	1769.63	1.00544E+000	1.00359E+000	7.45539E-004	...........
	1755	1770.63	1.00520E+000	1.00461E+000	7.45572E-004	...........
	1756	1771.64	1.00464E+000	1.00465E+000	7.43097E-004	...........
	1757	1772.65	1.00427E+000	1.00403E+000	7.47122E-004	...........
	1758	1773.66	1.00423E+000	1.00577E+000	7.45347E-004	...........
	1759	1774.67	1.00439E+000	1.00401E+000	7.42447E-004	...........
	1760	1775.67	1.00457E+000	1.00452E+000	7.41672E-004	...........
	1761	1776.68	1.00469E+000	1.00654E+000	7.41430E-004	...........
	1762	1777.69	1.00483E+000	1.00526E+000	7.36772E-004	...........
	1763	1778.7	1.00509E+000	1.00576E+000	7.41339E-004	...........
	1764	1779.71	1.00540E+000	1.00643E+000	7.41797E-004	...........
	1765	1780.72	1.00564E+000	1.00516E+000	7.40030E-004	...........
	1766	1781.72	1.00579E+000	1.00613E+000	7.35897E-004	...........
	1767	1782.73	1.00582E+000	1.00516E+000	7.39797E-004	...........
	1768	1783.74	1.00575E+000	1.00503E+000	7.34931E-004	...........
	1769	1784.75	1.00559E+000	1.00498E+000	7.40630E-004	...........
	1770	1785.76	1.00537E+000	1.00453E+000	7.37281E-004	...........
	1771	1786.77	1.00515E+000	1.00568E+000	7.36322E-004	...........
	1772	1787.78	1.00499E+000	1.00333E+000	7.31647E-004	...........
	1773	1788.78	1.00488E+000	1.00597E+000	7.34781E-004	...........
	1774	1789.79	1.00483E+000	1.00651E+000	7.34831E-004	...........
	1775	1790.8	1.00498E+000	1.00483E+000	7.35847E-004	...........
	1776	1791.81	1.00526E+000	1.00439E+000	7.39539E-004	...........
	1777	1792.82	1.00536E+000	1.00505E+000	7.39747E-004	...........
	1778	1793.82	1.00521E+000	1.00498E+000	7.34597E-004	...........
	1779	1794.83	1.00500E+000	1.00421E+000	7.33080E-004	...........
	1780	1795.84	1.00488E+000	1.00643E+000	7.38397E-004	...........
	1781	1796.85	1.00491E+000	1.00510E+000	7.40605E-004	...........
	1782	1797.86	1.00507E+000	1.00494E+000	7.42189E-004	...........
	1783	1798.87	1.00522E+000	1.00444E+000	7.35631E-004	...........
	1784	1799.88	1.00521E+000	1.00626E+000	7.39280E-004	...........
	1785	1800.88	1.00516E+000	1.00543E+000	7.40889E-004	...........
	1786	1801.89	1.00521E+000	1.00444E+000	7.41747E-004	...........
	1787	1802.9	1.00532E+000	1.00727E+000	7.45164E-004	...........
	1788	1803.91	1.00543E+000	1.00481E+000	7.38622E-004	...........
	1789	1804.92	1.00552E+000	1.00356E+000	7.43547E-004	...........
	1790	1805.92	1.00542E+000	1.00492E+000	7.36872E-004	...........
	1791	1806.93	1.00502E+000	1.00154E+000	7.40022E-004	...........
	1792	1807.94	1.00445E+000	1.00517E+000	7.44264E-004	...........
	1793	1808.95	1.00398E+000	1.00499E+000	7.40964E-004	...........
	1794	1809.96	1.00389E+000	1.00532E+000	7.37055E-004	...........
	1795	1810.97	1.00423E+000	1.00548E+000	7.46780E-004	...........
	1796	1811.97	1.00474E+000	1.00671E+000	7.45272E-004	...........
	1797	1812.98	1.00525E+000	1.00549E+000	7.51772E-004	...........
	1798	1813.99	1.00564E+000	1.00577E+000	7.45422E-004	...........
	1799	1815	1.00585E+000	1.00620E+000	7.43622E-004	...........
	1800	1816.01	1.00589E+000	1.00482E+000	7.46280E-004	...........
	1801	1817.02	1.00583E+000	1.00603E+000	7.48172E-004	...........
	1802	1818.03	1.00568E+000	1.00387E+000	7.53230E-004	...........
	1803	1819.03	1.00546E+000	1.00531E+000	7.49414E-004	...........
	1804	1820.04	1.00521E+000	1.00546E+000	7.42639E-004	...........
	1805	1821.05	1.00511E+000	1.00793E+000	7.42064E-004	...........
	1806	1822.06	1.00536E+000	1.00593E+000	7.44389E-004	...........
	1807	1823.07	1.00583E+000	1.00518E+000	7.42972E-004	...........
	1808	1824.07	1.00612E+000	1.00439E+000	7.46605E-004	...........
	1809	1825.08	1.00590E+000	1.00249E+000	7.43747E-004	...........
	1810	1826.09	1.00526E+000	1.00532E+000	7.45264E-004	...........
	1811	1827.1	1.00457E+000	1.00345E+000	7.46564E-004	...........
	1812	1828.11	1.00418E+000	1.00586E+000	7.39955E-004	...........
	1813	1829.12	1.00423E+000	1.00690E+000	7.41222E-004	...........
	1814	1830.13	1.00466E+000	1.00477E+000	7.47114E-004	...........
	1815	1831.13	1.00526E+000	1.00791E+000	7.49697E-004	...........
	1816	1832.14	1.00576E+000	1.00477E+000	7.47547E-004	...........
	1817	1833.15	1.00603E+000	1.00506E+000	7.45530E-004	...........
	1818	1834.16	1.00598E+000	1.00503E+000	7.45214E-004	...........
	1819	1835.17	1.00568E+000	1.00554E+000	7.45755E-004	...........
	1820	1836.17	1.00543E+000	1.00734E+000	7.46730E-004	...........
	1821	1837.18	1.00545E+000	1.00469E+000	7.49480E-004	...........
	1822	1838.19	1.00566E+000	1.00569E+000	7.51214E-004	...........
	1823	1839.2	1.00579E+000	1.00670E+000	7.53514E-004	...........
	1824	1840.21	1.00583E+000	1.00558E+000	7.48255E-004	...........
	1825	1841.22	1.00585E+000	1.00442E+000	7.47547E-004	...........
	1826	1842.22	1.00577E+000	1.00511E+000	7.46047E-004	...........
	1827	1843.23	1.00551E+000	1.00504E+000	7.39780E-004	...........
	1828	1844.24	1.00523E+000	1.00523E+000	7.39055E-004	...........
	1829	1845.25	1.00508E+000	1.00509E+000	7.43139E-004	...........
	1830	1846.26	1.00506E+000	1.00551E+000	7.43072E-004	...........
	1831	1847.27	1.00510E+000	1.00356E+000	7.47330E-004	...........
	1832	1848.28	1.00503E+000	1.00435E+000	7.41980E-004	...........
	1833	1849.28	1.00480E+000	1.00477E+000	7.38689E-004	...........
	1834	1850.29	1.00460E+000	1.00683E+000	7.46497E-004	...........
	1835	1851.3	1.00469E+000	1.00488E+000	7.40247E-004	...........
	1836	1852.31	1.00503E+000	1.00522E+000	7.43614E-004	...........
	1837	1853.32	1.00531E+000	1.00471E+000	7.40622E-004	...........
	1838	1854.32	1.00534E+000	1.00561E+000	7.41330E-004	...........
	1839	1855.33	1.00523E+000	1.00450E+000	7.42222E-004	...........
	1840	1856.34	1.00513E+000	1.00538E+000	7.46447E-004	...........
	1841	1857.35	1.00511E+000	1.00700E+000	7.49722E-004	...........
	1842	1858.36	1.00527E+000	1.00600E+000	7.44714E-004	...........
	1843	1859.37	1.00557E+000	1.00399E+000	7.47230E-004	...........
	1844	1860.38	1.00571E+000	1.00418E+000	7.45530E-004	...........
	1845	1861.38	1.00543E+000	1.00416E+000	7.44097E-004	...........
	1846	1862.39	1.00493E+000	1.00472E+000	7.43822E-004	...........
	1847	1863.4	1.00456E+000	1.00592E+000	7.47255E-004	...........
	1848	1864.41	1.00455E+000	1.00545E+000	7.48664E-004	...........
	1849	1865.42	1.00482E+000	1.00462E+000	7.46530E-004	...........
	1850	1866.42	1.00513E+000	1.00691E+000	7.44672E-004	...........
	1851	1867.43	1.00535E+000	1.00474E+000	7.50047E-004	...........
	1852	1868.44	1.00552E+000	1.00645E+000	7.45580E-004	...........
	1853	1869.45	1.00564E+000	1.00505E+000	7.46989E-004	...........
	1854	1870.46	1.00567E+000	1.00485E+000	7.39897E-004	...........
	1855	1871.47	1.00556E+000	1.00495E+000	7.42097E-004	...........
	1856	1872.47	1.00535E+000	1.00518E+000	7.43464E-004	...........
	1857	1873.48	1.00513E+000	1.00397E+000	7.43330E-004	...........
	1858	1874.49	1.00498E+000	1.00629E+000	7.39339E-004	...........
	1859	1875.5	1.00495E+000	1.00612E+000	7.36564E-004	...........
	1860	1876.51	1.00513E+000	1.00536E+000	7.40914E-004	...........
	1861	1877.52	1.00541E+000	1.00462E+000	7.45014E-004	...........
	1862	1878.53	1.00552E+000	1.00506E+000	7.50697E-004	...........
	1863	1879.53	1.00537E+000	1.00423E+000	7.40764E-004	...........
	1864	1880.54	1.00509E+000	1.00459E+000	7.43522E-004	...........
	1865	1881.55	1.00484E+000	1.00592E+000	7.42155E-004	...........
	1866	1882.56	1.00475E+000	1.00363E+000	7.36197E-004	...........
	1867	1883.57	1.00473E+000	1.00329E+000	7.40014E-004	...........
